Created As Omnic File, PLAS 244
Raman Shift / cm-1,INT
3418.58,-105
3417.61,-86
3416.65,-59
3415.68,-37
3414.72,-21
3413.76,-12
3412.79,-22
3411.83,-56
3410.86,-99
3409.90,-117
3408.94,-79
3407.97,-19
3407.01,11
3406.04,0
3405.08,-9
3404.11,22
3403.15,72
3402.19,94
3401.22,61
3400.26,4
3399.29,-21
3398.33,-37
3397.36,-41
3396.40,-19
3395.44,-14
3394.47,-23
3393.51,-16
3392.54,13
3391.58,59
3390.61,111
3389.65,127
3388.69,74
3387.72,15
3386.76,-4
3385.79,18
3384.83,39
3383.87,17
3382.90,0
3381.94,12
3380.97,16
3380.01,-13
3379.04,-62
3378.08,-76
3377.12,-45
3376.15,16
3375.19,69
3374.22,95
3373.26,98
3372.29,70
3371.33,29
3370.37,-12
3369.40,-48
3368.44,-57
3367.47,-50
3366.51,-61
3365.54,-89
3364.58,-70
3363.62,-40
3362.65,-28
3361.69,-33
3360.72,-58
3359.76,-82
3358.80,-72
3357.83,-35
3356.87,14
3355.90,41
3354.94,17
3353.97,-33
3353.01,-102
3352.05,-132
3351.08,-95
3350.12,-38
3349.15,2
3348.19,16
3347.22,16
3346.26,25
3345.30,50
3344.33,79
3343.37,67
3342.40,41
3341.44,29
3340.47,14
3339.51,33
3338.55,56
3337.58,45
3336.62,23
3335.65,0
3334.69,-14
3333.73,-6
3332.76,14
3331.80,49
3330.83,67
3329.87,27
3328.90,-54
3327.94,-108
3326.98,-89
3326.01,-31
3325.05,39
3324.08,83
3323.12,60
3322.15,11
3321.19,29
3320.23,78
3319.26,93
3318.30,86
3317.33,83
3316.37,72
3315.40,58
3314.44,59
3313.48,41
3312.51,22
3311.55,41
3310.58,56
3309.62,91
3308.66,125
3307.69,108
3306.73,82
3305.76,66
3304.80,42
3303.83,19
3302.87,25
3301.91,50
3300.94,73
3299.98,110
3299.01,116
3298.05,117
3297.08,134
3296.12,126
3295.16,111
3294.19,147
3293.23,191
3292.26,225
3291.30,223
3290.33,141
3289.37,54
3288.41,41
3287.44,53
3286.48,43
3285.51,29
3284.55,57
3283.59,108
3282.62,122
3281.66,109
3280.69,110
3279.73,119
3278.76,126
3277.80,97
3276.84,29
3275.87,-22
3274.91,-20
3273.94,13
3272.98,38
3272.01,25
3271.05,0
3270.09,25
3269.12,63
3268.16,30
3267.19,-30
3266.23,-38
3265.26,-11
3264.30,-2
3263.34,-5
3262.37,14
3261.41,47
3260.44,80
3259.48,91
3258.51,52
3257.55,25
3256.59,36
3255.62,31
3254.66,25
3253.69,6
3252.73,-21
3251.77,-22
3250.80,-16
3249.84,-37
3248.87,-62
3247.91,-51
3246.94,-15
3245.98,12
3245.02,17
3244.05,16
3243.09,13
3242.12,-1
3241.16,-39
3240.19,-79
3239.23,-63
3238.27,8
3237.30,65
3236.34,66
3235.37,38
3234.41,15
3233.44,10
3232.48,23
3231.52,37
3230.55,37
3229.59,26
3228.62,2
3227.66,-16
3226.70,-29
3225.73,-71
3224.77,-81
3223.80,-49
3222.84,-40
3221.87,-54
3220.91,-61
3219.95,-43
3218.98,-18
3218.02,-9
3217.05,-22
3216.09,-32
3215.12,-14
3214.16,14
3213.20,32
3212.23,34
3211.27,0
3210.30,-47
3209.34,-59
3208.37,-50
3207.41,-50
3206.45,-55
3205.48,-48
3204.52,-48
3203.55,-53
3202.59,-37
3201.63,-13
3200.66,-1
3199.70,-21
3198.73,-50
3197.77,-69
3196.80,-78
3195.84,-60
3194.88,-37
3193.91,-34
3192.95,-22
3191.98,-7
3191.02,-21
3190.05,-36
3189.09,-34
3188.13,-23
3187.16,-4
3186.20,17
3185.23,24
3184.27,12
3183.30,7
3182.34,-1
3181.38,-22
3180.41,-16
3179.45,13
3178.48,21
3177.52,11
3176.56,22
3175.59,32
3174.63,-2
3173.66,-55
3172.70,-82
3171.73,-44
3170.77,44
3169.81,107
3168.84,108
3167.88,61
3166.91,24
3165.95,-1
3164.98,-64
3164.02,-128
3163.06,-149
3162.09,-112
3161.13,-37
3160.16,18
3159.20,9
3158.23,-42
3157.27,-54
3156.31,-21
3155.34,20
3154.38,67
3153.41,58
3152.45,-18
3151.49,-78
3150.52,-77
3149.56,-43
3148.59,-36
3147.63,-49
3146.66,-26
3145.70,33
3144.74,37
3143.77,8
3142.81,13
3141.84,32
3140.88,35
3139.91,23
3138.95,16
3137.99,19
3137.02,12
3136.06,-5
3135.09,-14
3134.13,-14
3133.16,6
3132.20,35
3131.24,36
3130.27,15
3129.31,-1
3128.34,0
3127.38,3
3126.42,-14
3125.45,-16
3124.49,25
3123.52,58
3122.56,58
3121.59,15
3120.63,-20
3119.67,-11
3118.70,-2
3117.74,-13
3116.77,-20
3115.81,-29
3114.84,-65
3113.88,-100
3112.92,-94
3111.95,-56
3110.99,1
3110.02,28
3109.06,-2
3108.09,-48
3107.13,-97
3106.17,-154
3105.20,-177
3104.24,-154
3103.27,-109
3102.31,-60
3101.34,-40
3100.38,-39
3099.42,-32
3098.45,-66
3097.49,-121
3096.52,-120
3095.56,-91
3094.60,-81
3093.63,-98
3092.67,-109
3091.70,-102
3090.74,-114
3089.77,-128
3088.81,-88
3087.85,-61
3086.88,-81
3085.92,-110
3084.95,-112
3083.99,-83
3083.02,-53
3082.06,-49
3081.10,-70
3080.13,-92
3079.17,-103
3078.20,-120
3077.24,-136
3076.27,-104
3075.31,-35
3074.35,0
3073.38,-38
3072.42,-73
3071.45,-44
3070.49,-2
3069.53,14
3068.56,39
3067.60,77
3066.63,110
3065.67,150
3064.70,179
3063.74,189
3062.78,241
3061.81,310
3060.85,346
3059.88,389
3058.92,479
3057.95,589
3056.99,660
3056.03,658
3055.06,584
3054.10,520
3053.13,505
3052.17,486
3051.20,412
3050.24,301
3049.28,208
3048.31,140
3047.35,97
3046.38,93
3045.42,92
3044.46,63
3043.49,29
3042.53,14
3041.56,44
3040.60,78
3039.63,67
3038.67,52
3037.71,56
3036.74,69
3035.78,74
3034.81,47
3033.85,2
3032.88,-13
3031.92,23
3030.96,85
3029.99,102
3029.03,58
3028.06,24
3027.10,36
3026.13,76
3025.17,95
3024.21,81
3023.24,54
3022.28,30
3021.31,11
3020.35,-39
3019.39,-61
3018.42,0
3017.46,89
3016.49,159
3015.53,188
3014.56,180
3013.60,173
3012.64,184
3011.67,190
3010.71,177
3009.74,139
3008.78,104
3007.81,113
3006.85,138
3005.89,161
3004.92,179
3003.96,173
3002.99,146
3002.03,126
3001.06,117
3000.10,116
2999.14,134
2998.17,162
2997.21,159
2996.24,135
2995.28,127
2994.32,138
2993.35,177
2992.39,192
2991.42,186
2990.46,213
2989.49,276
2988.53,337
2987.57,357
2986.60,317
2985.64,281
2984.67,299
2983.71,319
2982.74,357
2981.78,428
2980.82,502
2979.85,556
2978.89,595
2977.92,627
2976.96,653
2975.99,669
2975.03,685
2974.07,711
2973.10,736
2972.14,772
2971.17,797
2970.21,812
2969.25,865
2968.28,952
2967.32,1058
2966.35,1154
2965.39,1211
2964.42,1254
2963.46,1292
2962.50,1309
2961.53,1330
2960.57,1333
2959.60,1318
2958.64,1308
2957.67,1284
2956.71,1237
2955.75,1197
2954.78,1153
2953.82,1072
2952.85,989
2951.89,952
2950.92,954
2949.96,948
2949.00,899
2948.03,820
2947.07,730
2946.10,637
2945.14,532
2944.17,439
2943.21,399
2942.25,407
2941.28,425
2940.32,426
2939.35,414
2938.39,410
2937.43,420
2936.46,437
2935.50,449
2934.53,491
2933.57,566
2932.60,610
2931.64,603
2930.68,584
2929.71,586
2928.75,618
2927.78,688
2926.82,757
2925.85,780
2924.89,771
2923.93,764
2922.96,762
2922.00,780
2921.03,818
2920.07,845
2919.10,860
2918.14,889
2917.18,946
2916.21,979
2915.25,935
2914.28,859
2913.32,848
2912.36,897
2911.39,980
2910.43,1059
2909.46,1125
2908.50,1209
2907.53,1324
2906.57,1417
2905.61,1436
2904.64,1412
2903.68,1420
2902.71,1490
2901.75,1564
2900.78,1586
2899.82,1569
2898.86,1550
2897.89,1559
2896.93,1590
2895.96,1603
2895.00,1582
2894.03,1569
2893.07,1589
2892.11,1639
2891.14,1729
2890.18,1823
2889.21,1881
2888.25,1907
2887.29,1963
2886.32,2102
2885.36,2284
2884.39,2409
2883.43,2449
2882.46,2483
2881.50,2550
2880.54,2600
2879.57,2670
2878.61,2723
2877.64,2659
2876.68,2531
2875.71,2448
2874.75,2432
2873.79,2448
2872.82,2445
2871.86,2415
2870.89,2379
2869.93,2326
2868.96,2267
2868.00,2252
2867.04,2277
2866.07,2273
2865.11,2184
2864.14,2075
2863.18,1998
2862.22,1894
2861.25,1723
2860.29,1560
2859.32,1478
2858.36,1445
2857.39,1413
2856.43,1372
2855.47,1363
2854.50,1371
2853.54,1341
2852.57,1293
2851.61,1242
2850.64,1183
2849.68,1144
2848.72,1133
2847.75,1118
2846.79,1098
2845.82,1100
2844.86,1113
2843.89,1105
2842.93,1101
2841.97,1124
2841.00,1121
2840.04,1079
2839.07,1017
2838.11,922
2837.15,800
2836.18,684
2835.22,585
2834.25,486
2833.29,379
2832.32,291
2831.36,240
2830.40,203
2829.43,158
2828.47,105
2827.50,62
2826.54,47
2825.57,22
2824.61,-33
2823.65,-77
2822.68,-70
2821.72,-6
2820.75,56
2819.79,82
2818.82,69
2817.86,7
2816.90,-60
2815.93,-99
2814.97,-78
2814.00,-33
2813.04,-36
2812.08,-87
2811.11,-113
2810.15,-97
2809.18,-64
2808.22,-24
2807.25,-13
2806.29,-53
2805.33,-107
2804.36,-128
2803.40,-121
2802.43,-113
2801.47,-118
2800.50,-114
2799.54,-91
2798.58,-70
2797.61,-75
2796.65,-88
2795.68,-80
2794.72,-60
2793.75,-45
2792.79,-30
2791.83,-17
2790.86,-20
2789.90,-33
2788.93,-38
2787.97,-31
2787.00,2
2786.04,53
2785.08,87
2784.11,79
2783.15,13
2782.18,-110
2781.22,-202
2780.26,-202
2779.29,-175
2778.33,-163
2777.36,-142
2776.40,-112
2775.43,-123
2774.47,-165
2773.51,-158
2772.54,-131
2771.58,-132
2770.61,-149
2769.65,-193
2768.68,-218
2767.72,-200
2766.76,-186
2765.79,-192
2764.83,-204
2763.86,-190
2762.90,-135
2761.93,-90
2760.97,-108
2760.01,-128
2759.04,-113
2758.08,-91
2757.11,-78
2756.15,-94
2755.19,-122
2754.22,-134
2753.26,-129
2752.29,-98
2751.33,-44
2750.36,20
2749.40,69
2748.44,75
2747.47,20
2746.51,-75
2745.54,-144
2744.58,-173
2743.61,-172
2742.65,-138
2741.69,-92
2740.72,-74
2739.76,-96
2738.79,-138
2737.83,-169
2736.86,-183
2735.90,-186
2734.94,-168
2733.97,-140
2733.01,-124
2732.04,-127
2731.08,-143
2730.12,-137
2729.15,-102
2728.19,-71
2727.22,-40
2726.26,4
2725.29,35
2724.33,21
2723.37,-14
2722.40,-33
2721.44,-49
2720.47,-77
2719.51,-89
2718.54,-50
2717.58,24
2716.62,93
2715.65,110
2714.69,71
2713.72,0
2712.76,-55
2711.79,-80
2710.83,-94
2709.87,-93
2708.90,-73
2707.94,-88
2706.97,-133
2706.01,-183
2705.05,-244
2704.08,-268
2703.12,-231
2702.15,-186
2701.19,-168
2700.22,-170
2699.26,-204
2698.30,-259
2697.33,-265
2696.37,-210
2695.40,-175
2694.44,-189
2693.47,-214
2692.51,-225
2691.55,-196
2690.58,-130
2689.62,-69
2688.65,-53
2687.69,-71
2686.72,-78
2685.76,-52
2684.80,-40
2683.83,-40
2682.87,-21
2681.90,-36
2680.94,-93
2679.98,-121
2679.01,-98
2678.05,-58
2677.08,-37
2676.12,-19
2675.15,25
2674.19,58
2673.23,35
2672.26,0
2671.30,-24
2670.33,-36
2669.37,-59
2668.40,-96
2667.44,-120
2666.48,-115
2665.51,-79
2664.55,-42
2663.58,-46
2662.62,-89
2661.65,-113
2660.69,-105
2659.73,-121
2658.76,-146
2657.80,-113
2656.83,-65
2655.87,-41
2654.91,-49
2653.94,-98
2652.98,-146
2652.01,-153
2651.05,-127
2650.08,-105
2649.12,-125
2648.16,-164
2647.19,-187
2646.23,-188
2645.26,-163
2644.30,-134
2643.33,-100
2642.37,-34
2641.41,45
2640.44,69
2639.48,0
2638.51,-97
2637.55,-145
2636.58,-157
2635.62,-194
2634.66,-237
2633.69,-252
2632.73,-261
2631.76,-258
2630.80,-215
2629.83,-126
2628.87,-2
2627.91,112
2626.94,146
2625.98,85
2625.01,-12
2624.05,-81
2623.09,-95
2622.12,-74
2621.16,-68
2620.19,-74
2619.23,-68
2618.26,-56
2617.30,-43
2616.34,-25
2615.37,-12
2614.41,-23
2613.44,-50
2612.48,-66
2611.51,-65
2610.55,-55
2609.59,-34
2608.62,3
2607.66,24
2606.69,9
2605.73,1
2604.76,-7
2603.80,4
2602.84,36
2601.87,72
2600.91,84
2599.94,54
2598.98,18
2598.02,-2
2597.05,-16
2596.09,3
2595.12,44
2594.16,67
2593.19,72
2592.23,74
2591.27,69
2590.30,46
2589.34,14
2588.37,-10
2587.41,-15
2586.44,8
2585.48,43
2584.52,28
2583.55,-38
2582.59,-92
2581.62,-93
2580.66,-59
2579.69,-25
2578.73,-13
2577.77,-46
2576.80,-98
2575.84,-113
2574.87,-88
2573.91,-43
2572.95,4
2571.98,-1
2571.02,-70
2570.05,-123
2569.09,-115
2568.12,-54
2567.16,27
2566.20,70
2565.23,43
2564.27,-11
2563.30,-54
2562.34,-59
2561.37,-18
2560.41,37
2559.45,48
2558.48,10
2557.52,-31
2556.55,-40
2555.59,-7
2554.62,45
2553.66,63
2552.70,31
2551.73,-18
2550.77,-55
2549.80,-83
2548.84,-94
2547.88,-78
2546.91,-44
2545.95,-15
2544.98,-6
2544.02,0
2543.05,64
2542.09,118
2541.13,113
2540.16,50
2539.20,-17
2538.23,-27
2537.27,22
2536.30,79
2535.34,99
2534.38,95
2533.41,91
2532.45,74
2531.48,53
2530.52,33
2529.55,9
2528.59,-0
2527.63,22
2526.66,65
2525.70,95
2524.73,95
2523.77,58
2522.81,-2
2521.84,-42
2520.88,-27
2519.91,30
2518.95,65
2517.98,26
2517.02,-11
2516.06,4
2515.09,36
2514.13,79
2513.16,134
2512.20,147
2511.23,96
2510.27,44
2509.31,25
2508.34,73
2507.38,131
2506.41,153
2505.45,134
2504.48,120
2503.52,130
2502.56,168
2501.59,193
2500.63,161
2499.66,107
2498.70,98
2497.74,144
2496.77,206
2495.81,248
2494.84,242
2493.88,183
2492.91,155
2491.95,172
2490.99,188
2490.02,213
2489.06,258
2488.09,280
2487.13,247
2486.16,188
2485.20,152
2484.24,176
2483.27,241
2482.31,275
2481.34,281
2480.38,282
2479.41,256
2478.45,223
2477.49,199
2476.52,166
2475.56,125
2474.59,92
2473.63,89
2472.66,119
2471.70,135
2470.74,111
2469.77,84
2468.81,68
2467.84,62
2466.88,108
2465.92,165
2464.95,160
2463.99,121
2463.02,99
2462.06,94
2461.09,78
2460.13,54
2459.17,33
2458.20,19
2457.24,-7
2456.27,-65
2455.31,-103
2454.34,-77
2453.38,-12
2452.42,52
2451.45,62
2450.49,17
2449.52,-34
2448.56,-65
2447.59,-79
2446.63,-69
2445.67,-43
2444.70,-35
2443.74,-9
2442.77,80
2441.81,157
2440.85,157
2439.88,116
2438.92,63
2437.95,17
2436.99,-8
2436.02,-24
2435.06,-39
2434.10,-42
2433.13,-24
2432.17,10
2431.20,59
2430.24,97
2429.27,107
2428.31,62
2427.35,-2
2426.38,-50
2425.42,-77
2424.45,-120
2423.49,-156
2422.52,-130
2421.56,-46
2420.60,41
2419.63,87
2418.67,86
2417.70,67
2416.74,53
2415.78,15
2414.81,-62
2413.85,-145
2412.88,-204
2411.92,-196
2410.95,-92
2409.99,39
2409.03,87
2408.06,27
2407.10,-77
2406.13,-141
2405.17,-120
2404.20,-53
2403.24,15
2402.28,88
2401.31,128
2400.35,98
2399.38,54
2398.42,38
2397.45,37
2396.49,40
2395.53,47
2394.56,0
2393.60,-32
2392.63,-58
2391.67,-90
2390.71,-109
2389.74,-80
2388.78,-16
2387.81,60
2386.85,103
2385.88,92
2384.92,60
2383.96,47
2382.99,42
2382.03,17
2381.06,17
2380.10,91
2379.13,201
2378.17,299
2377.21,362
2376.24,367
2375.28,321
2374.31,224
2373.35,98
2372.38,24
2371.42,49
2370.46,126
2369.49,167
2368.53,166
2367.56,189
2366.60,248
2365.64,273
2364.67,232
2363.71,150
2362.74,72
2361.78,68
2360.81,128
2359.85,179
2358.89,162
2357.92,84
2356.96,59
2355.99,57
2355.03,109
2354.06,184
2353.10,207
2352.14,149
2351.17,85
2350.21,58
2349.24,110
2348.28,212
2347.31,284
2346.35,285
2345.39,218
2344.42,127
2343.46,62
2342.49,32
2341.53,9
2340.57,-3
2339.60,15
2338.64,61
2337.67,104
2336.71,75
2335.74,-12
2334.78,-60
2333.82,-78
2332.85,-122
2331.89,-158
2330.92,-149
2329.96,-97
2328.99,-7
2328.03,81
2327.07,94
2326.10,66
2325.14,72
2324.17,102
2323.21,116
2322.24,0
2321.28,-67
2320.32,-111
2319.35,-109
2318.39,-82
2317.42,-48
2316.46,-18
2315.49,5
2314.53,39
2313.57,98
2312.60,135
2311.64,118
2310.67,111
2309.71,141
2308.75,153
2307.78,134
2306.82,110
2305.85,78
2304.89,54
2303.92,66
2302.96,113
2302.00,145
2301.03,126
2300.07,96
2299.10,117
2298.14,143
2297.17,181
2296.21,190
2295.25,178
2294.28,123
2293.32,103
2292.35,147
2291.39,189
2290.42,169
2289.46,101
2288.50,-2
2287.53,-85
2286.57,-77
2285.60,-22
2284.64,22
2283.68,37
2282.71,25
2281.75,25
2280.78,49
2279.82,78
2278.85,91
2277.89,65
2276.93,27
2275.96,48
2275.00,126
2274.03,246
2273.07,228
2272.10,193
2271.14,162
2270.18,158
2269.21,200
2268.25,219
2267.28,193
2266.32,164
2265.35,180
2264.39,248
2263.43,324
2262.46,378
2261.50,438
2260.53,530
2259.57,620
2258.61,594
2257.64,428
2256.68,276
2255.71,139
2254.75,177
2253.78,316
2252.82,427
2251.86,442
2250.89,398
2249.93,331
2248.96,359
2248.00,485
2247.03,444
2246.07,231
2245.11,108
2244.14,86
2243.18,87
2242.21,87
2241.25,57
2240.28,35
2239.32,49
2238.36,72
2237.39,0
2236.43,-21
2235.46,-92
2234.50,-193
2233.54,-223
2232.57,-163
2231.61,-84
2230.64,10
2229.68,64
2228.71,5
2227.75,-75
2226.79,-101
2225.82,-115
2224.86,-119
2223.89,-68
2222.93,0
2221.96,29
2221.00,23
2220.04,39
2219.07,21
2218.11,-94
2217.14,-201
2216.18,-172
2215.21,-18
2214.25,166
2213.29,248
2212.32,179
2211.36,67
2210.39,31
2209.43,70
2208.47,109
2207.50,94
2206.54,36
2205.57,4
2204.61,62
2203.64,296
2202.68,387
2201.72,439
2200.75,478
2199.79,491
2198.82,463
2197.86,407
2196.89,331
2195.93,225
2194.97,84
2194.00,-31
2193.04,-39
2192.07,65
2191.11,209
2190.14,320
2189.18,379
2188.22,394
2187.25,380
2186.29,367
2185.32,370
2184.36,370
2183.40,329
2182.43,230
2181.47,0
2180.50,-96
2179.54,-109
2178.57,-61
2177.61,1
2176.65,65
2175.68,99
2174.72,66
2173.75,-4
2172.79,-57
2171.82,-60
2170.86,0
2169.90,12
2168.93,2
2167.97,-6
2167.00,-16
2166.04,-38
2165.07,-42
2164.11,-8
2163.15,49
2162.18,67
2161.22,2
2160.25,-77
2159.29,-85
2158.32,-31
2157.36,24
2156.40,25
2155.43,-34
2154.47,-100
2153.50,-117
2152.54,-72
2151.58,-0
2150.61,39
2149.65,62
2148.68,18
2147.72,4
2146.75,49
2145.79,109
2144.83,143
2143.86,129
2142.90,51
2141.93,-69
2140.97,-158
2140.00,-159
2139.04,-109
2138.08,-61
2137.11,9
2136.15,96
2135.18,108
2134.22,46
2133.25,40
2132.29,150
2131.33,260
2130.36,273
2129.40,192
2128.43,106
2127.47,85
2126.51,95
2125.54,81
2124.58,70
2123.61,85
2122.65,72
2121.68,36
2120.72,14
2119.76,-15
2118.79,-23
2117.83,-0
2116.86,-7
2115.90,-59
2114.93,-121
2113.97,-139
2113.01,-86
2112.04,-0
2111.08,42
2110.11,49
2109.15,66
2108.18,56
2107.22,1
2106.26,-60
2105.29,-130
2104.33,-171
2103.36,-129
2102.40,-50
2101.44,20
2100.47,57
2099.51,44
2098.54,0
2097.58,-93
2096.61,-196
2095.65,-290
2094.69,-357
2093.72,-390
2092.76,-333
2091.79,-191
2090.83,-57
2089.86,10
2088.90,11
2087.94,-23
2086.97,-66
2086.01,-86
2085.04,-62
2084.08,-13
2083.11,19
2082.15,15
2081.19,-20
2080.22,-65
2079.26,-89
2078.29,-47
2077.33,-13
2076.37,33
2075.40,3
2074.44,-47
2073.47,-51
2072.51,-34
2071.54,-71
2070.58,-161
2069.62,-222
2068.65,-199
2067.69,-145
2066.72,-114
2065.76,-67
2064.79,33
2063.83,126
2062.87,159
2061.90,137
2060.94,81
2059.97,25
2059.01,-16
2058.04,-40
2057.08,0
2056.12,-38
2055.15,-98
2054.19,-122
2053.22,-74
2052.26,-10
2051.30,8
2050.33,-41
2049.37,-94
2048.40,-57
2047.44,43
2046.47,93
2045.51,66
2044.55,37
2043.58,52
2042.62,90
2041.65,137
2040.69,191
2039.72,212
2038.76,163
2037.80,60
2036.83,-66
2035.87,-236
2034.90,-261
2033.94,-208
2032.97,-134
2032.01,-68
2031.05,-36
2030.08,-66
2029.12,-150
2028.15,-229
2027.19,-203
2026.23,-76
2025.26,-3
2024.30,-23
2023.33,-32
2022.37,-23
2021.40,-20
2020.44,-17
2019.48,-40
2018.51,-96
2017.55,-138
2016.58,-126
2015.62,-100
2014.65,-102
2013.69,0
2012.73,65
2011.76,192
2010.80,327
2009.83,390
2008.87,386
2007.90,387
2006.94,360
2005.98,255
2005.01,109
2004.05,-17
2003.08,-82
2002.12,-81
2001.15,-48
2000.19,-17
1999.23,-12
1998.26,-57
1997.30,-141
1996.33,-208
1995.37,-202
1994.41,-141
1993.44,-119
1992.48,-128
1991.51,-124
1990.55,-116
1989.58,-117
1988.62,-108
1987.66,-78
1986.69,-52
1985.73,-56
1984.76,-69
1983.80,-58
1982.83,-32
1981.87,-109
1980.91,-87
1979.94,-133
1978.98,-265
1978.01,-390
1977.05,-415
1976.08,-364
1975.12,-306
1974.16,-282
1973.19,-291
1972.23,-305
1971.26,-278
1970.30,-198
1969.34,-124
1968.37,-106
1967.41,-124
1966.44,-154
1965.48,-192
1964.51,-206
1963.55,-168
1962.59,-116
1961.62,-104
1960.66,-167
1959.69,-280
1958.73,-367
1957.76,-386
1956.80,-371
1955.84,-321
1954.87,-219
1953.91,-137
1952.94,-90
1951.98,-60
1951.01,-82
1950.05,-150
1949.09,-177
1948.12,-152
1947.16,-128
1946.19,-138
1945.23,-175
1944.27,-224
1943.30,-237
1942.34,-161
1941.37,-28
1940.41,53
1939.44,28
1938.48,-50
1937.52,-121
1936.55,-170
1935.59,-175
1934.62,-134
1933.66,-89
1932.69,-58
1931.73,-21
1930.77,5
1929.80,-17
1928.84,-76
1927.87,-126
1926.91,-161
1925.94,-181
1924.98,-143
1924.02,-71
1923.05,-45
1922.09,-45
1921.12,-43
1920.16,0
1919.20,31
1918.23,110
1917.27,190
1916.30,207
1915.34,147
1914.37,64
1913.41,3
1912.45,-37
1911.48,-48
1910.52,-31
1909.55,-25
1908.59,-46
1907.62,-83
1906.66,-135
1905.70,-171
1904.73,-162
1903.77,-140
1902.80,-123
1901.84,-89
1900.87,-41
1899.91,-35
1898.95,-71
1897.98,-76
1897.02,-30
1896.05,33
1895.09,80
1894.13,73
1893.16,37
1892.20,10
1891.23,-28
1890.27,-86
1889.30,-138
1888.34,-156
1887.38,-128
1886.41,-67
1885.45,1
1884.48,50
1883.52,39
1882.55,-33
1881.59,-91
1880.63,-107
1879.66,-88
1878.70,-78
1877.73,-72
1876.77,-98
1875.80,-138
1874.84,-129
1873.88,-54
1872.91,34
1871.95,71
1870.98,29
1870.02,-68
1869.06,-118
1868.09,-71
1867.13,19
1866.16,88
1865.20,90
1864.23,37
1863.27,-21
1862.31,-51
1861.34,-65
1860.38,-85
1859.41,-104
1858.45,-92
1857.48,-46
1856.52,-0
1855.56,25
1854.59,49
1853.63,90
1852.66,131
1851.70,130
1850.73,58
1849.77,0
1848.81,-26
1847.84,18
1846.88,101
1845.91,148
1844.95,134
1843.98,137
1843.02,205
1842.06,283
1841.09,280
1840.13,169
1839.16,41
1838.20,-16
1837.24,-11
1836.27,31
1835.31,86
1834.34,109
1833.38,93
1832.41,74
1831.45,55
1830.49,12
1829.52,-34
1828.56,-45
1827.59,-23
1826.63,17
1825.66,81
1824.70,157
1823.74,178
1822.77,139
1821.81,107
1820.84,64
1819.88,5
1818.91,-14
1817.95,-3
1816.99,-13
1816.02,-44
1815.06,-55
1814.09,-90
1813.13,-79
1812.17,-76
1811.20,-45
1810.24,16
1809.27,40
1808.31,4
1807.34,-26
1806.38,-17
1805.42,-21
1804.45,-49
1803.49,-77
1802.52,-94
1801.56,-101
1800.59,-110
1799.63,-126
1798.67,-120
1797.70,-77
1796.74,-16
