Created As Omnic File,PLAS 160
Raman Shift / cm-1,INT
3418.58,4
3417.61,4
3416.65,4
3415.68,4
3414.72,2
3413.76,-0
3412.79,-0
3411.83,0
3410.86,1
3409.90,1
3408.94,1
3407.97,0
3407.01,1
3406.04,2
3405.08,3
3404.11,5
3403.15,6
3402.19,5
3401.22,3
3400.26,4
3399.29,5
3398.33,4
3397.36,3
3396.40,3
3395.44,3
3394.47,5
3393.51,6
3392.54,7
3391.58,7
3390.61,8
3389.65,5
3388.69,-1
3387.72,-0
3386.76,3
3385.79,2
3384.83,2
3383.87,2
3382.90,3
3381.94,3
3380.97,2
3380.01,-1
3379.04,-3
3378.08,-3
3377.12,0
3376.15,2
3375.19,5
3374.22,6
3373.26,5
3372.29,2
3371.33,1
3370.37,1
3369.40,-0
3368.44,-1
3367.47,-1
3366.51,-1
3365.54,-2
3364.58,-3
3363.62,-5
3362.65,-4
3361.69,-2
3360.72,-2
3359.76,-2
3358.80,-2
3357.83,-0
3356.87,1
3355.90,1
3354.94,-2
3353.97,-4
3353.01,-5
3352.05,-8
3351.08,-9
3350.12,-9
3349.15,-7
3348.19,-3
3347.22,2
3346.26,1
3345.30,-3
3344.33,-4
3343.37,-6
3342.40,-5
3341.44,-4
3340.47,-5
3339.51,-4
3338.55,1
3337.58,2
3336.62,-1
3335.65,-3
3334.69,-3
3333.73,-1
3332.76,1
3331.80,-2
3330.83,-5
3329.87,-5
3328.90,-5
3327.94,-7
3326.98,-8
3326.01,-7
3325.05,-6
3324.08,-3
3323.12,-1
3322.15,1
3321.19,1
3320.23,-1
3319.26,-2
3318.30,-3
3317.33,-2
3316.37,-7
3315.40,-8
3314.44,-8
3313.48,-7
3312.51,-6
3311.55,-7
3310.58,-6
3309.62,-0
3308.66,3
3307.69,0
3306.73,-2
3305.76,-3
3304.80,-3
3303.83,-2
3302.87,-1
3301.91,-1
3300.94,-2
3299.98,-2
3299.01,2
3298.05,4
3297.08,3
3296.12,1
3295.16,-1
3294.19,1
3293.23,2
3292.26,3
3291.30,5
3290.33,3
3289.37,1
3288.41,-1
3287.44,-2
3286.48,-1
3285.51,3
3284.55,5
3283.59,7
3282.62,9
3281.66,11
3280.69,9
3279.73,6
3278.76,4
3277.80,2
3276.84,1
3275.87,-0
3274.91,-0
3273.94,-0
3272.98,-2
3272.01,0
3271.05,5
3270.09,5
3269.12,-2
3268.16,-2
3267.19,1
3266.23,1
3265.26,2
3264.30,6
3263.34,7
3262.37,5
3261.41,3
3260.44,6
3259.48,7
3258.51,3
3257.55,1
3256.59,3
3255.62,4
3254.66,4
3253.69,1
3252.73,0
3251.77,-3
3250.80,-3
3249.84,-4
3248.87,-4
3247.91,-1
3246.94,2
3245.98,3
3245.02,3
3244.05,1
3243.09,-2
3242.12,-4
3241.16,-6
3240.19,-5
3239.23,-3
3238.27,-4
3237.30,-3
3236.34,-1
3235.37,-2
3234.41,-4
3233.44,-6
3232.48,-8
3231.52,-7
3230.55,-6
3229.59,-7
3228.62,-8
3227.66,-9
3226.70,-9
3225.73,-10
3224.77,-11
3223.80,-9
3222.84,-9
3221.87,-11
3220.91,-11
3219.95,-8
3218.98,-7
3218.02,-10
3217.05,-11
3216.09,-11
3215.12,-9
3214.16,-7
3213.20,-8
3212.23,-10
3211.27,-10
3210.30,-12
3209.34,-14
3208.37,-15
3207.41,-14
3206.45,-12
3205.48,-12
3204.52,-12
3203.55,-12
3202.59,-10
3201.63,-9
3200.66,-9
3199.70,-13
3198.73,-14
3197.77,-12
3196.80,-11
3195.84,-10
3194.88,-10
3193.91,-10
3192.95,-11
3191.98,-12
3191.02,-13
3190.05,-14
3189.09,-12
3188.13,-9
3187.16,-7
3186.20,-5
3185.23,-5
3184.27,-5
3183.30,-5
3182.34,-5
3181.38,-5
3180.41,-4
3179.45,-2
3178.48,-3
3177.52,-4
3176.56,-3
3175.59,-3
3174.63,-4
3173.66,-6
3172.70,-7
3171.73,-6
3170.77,-4
3169.81,-3
3168.84,-2
3167.88,-1
3166.91,-3
3165.95,-5
3164.98,-5
3164.02,-4
3163.06,-6
3162.09,-6
3161.13,-1
3160.16,2
3159.20,1
3158.23,-2
3157.27,-3
3156.31,-3
3155.34,-3
3154.38,-2
3153.41,-2
3152.45,-6
3151.49,-8
3150.52,-5
3149.56,-1
3148.59,-1
3147.63,-5
3146.66,-3
3145.70,3
3144.74,1
3143.77,-2
3142.81,-2
3141.84,0
3140.88,1
3139.91,-0
3138.95,-3
3137.99,-4
3137.02,-1
3136.06,2
3135.09,2
3134.13,1
3133.16,2
3132.20,3
3131.24,3
3130.27,2
3129.31,1
3128.34,0
3127.38,0
3126.42,1
3125.45,4
3124.49,4
3123.52,1
3122.56,2
3121.59,4
3120.63,3
3119.67,3
3118.70,3
3117.74,3
3116.77,-0
3115.81,-3
3114.84,-5
3113.88,-6
3112.92,-8
3111.95,-7
3110.99,-1
3110.02,3
3109.06,0
3108.09,-3
3107.13,-4
3106.17,-8
3105.20,-13
3104.24,-16
3103.27,-13
3102.31,-9
3101.34,-7
3100.38,-7
3099.42,-6
3098.45,-7
3097.49,-8
3096.52,-5
3095.56,-2
3094.60,-2
3093.63,-4
3092.67,-5
3091.70,-3
3090.74,-2
3089.77,-1
3088.81,0
3087.85,1
3086.88,3
3085.92,5
3084.95,3
3083.99,3
3083.02,6
3082.06,8
3081.10,7
3080.13,5
3079.17,4
3078.20,4
3077.24,5
3076.27,9
3075.31,12
3074.35,14
3073.38,14
3072.42,13
3071.45,14
3070.49,15
3069.53,16
3068.56,17
3067.60,19
3066.63,21
3065.67,22
3064.70,24
3063.74,26
3062.78,28
3061.81,31
3060.85,31
3059.88,32
3058.92,35
3057.95,40
3056.99,46
3056.03,51
3055.06,52
3054.10,54
3053.13,61
3052.17,67
3051.20,71
3050.24,73
3049.28,75
3048.31,77
3047.35,78
3046.38,83
3045.42,91
3044.46,96
3043.49,96
3042.53,97
3041.56,100
3040.60,105
3039.63,110
3038.67,115
3037.71,122
3036.74,126
3035.78,127
3034.81,129
3033.85,135
3032.88,139
3031.92,142
3030.96,145
3029.99,144
3029.03,149
3028.06,157
3027.10,163
3026.13,169
3025.17,174
3024.21,178
3023.24,181
3022.28,185
3021.31,189
3020.35,192
3019.39,200
3018.42,211
3017.46,221
3016.49,229
3015.53,238
3014.56,244
3013.60,248
3012.64,253
3011.67,263
3010.71,272
3009.74,279
3008.78,286
3007.81,299
3006.85,311
3005.89,318
3004.92,328
3003.96,343
3002.99,358
3002.03,374
3001.06,391
3000.10,407
2999.14,425
2998.17,444
2997.21,464
2996.24,487
2995.28,511
2994.32,537
2993.35,566
2992.39,593
2991.42,622
2990.46,655
2989.49,690
2988.53,725
2987.57,762
2986.60,801
2985.64,841
2984.67,886
2983.71,930
2982.74,977
2981.78,1032
2980.82,1093
2979.85,1152
2978.89,1213
2977.92,1283
2976.96,1358
2975.99,1432
2975.03,1508
2974.07,1595
2973.10,1687
2972.14,1777
2971.17,1870
2970.21,1969
2969.25,2076
2968.28,2187
2967.32,2298
2966.35,2406
2965.39,2511
2964.42,2626
2963.46,2743
2962.50,2853
2961.53,2963
2960.57,3070
2959.60,3173
2958.64,3274
2957.67,3374
2956.71,3477
2955.75,3580
2954.78,3682
2953.82,3775
2952.85,3865
2951.89,3965
2950.92,4083
2949.96,4208
2949.00,4334
2948.03,4468
2947.07,4612
2946.10,4769
2945.14,4937
2944.17,5112
2943.21,5299
2942.25,5500
2941.28,5708
2940.32,5908
2939.35,6095
2938.39,6261
2937.43,6405
2936.46,6523
2935.50,6616
2934.53,6677
2933.57,6712
2932.60,6728
2931.64,6724
2930.68,6707
2929.71,6683
2928.75,6651
2927.78,6616
2926.82,6593
2925.85,6574
2924.89,6544
2923.93,6512
2922.96,6471
2922.00,6428
2921.03,6392
2920.07,6361
2919.10,6338
2918.14,6325
2917.18,6322
2916.21,6321
2915.25,6326
2914.28,6341
2913.32,6371
2912.36,6415
2911.39,6462
2910.43,6510
2909.46,6559
2908.50,6612
2907.53,6669
2906.57,6726
2905.61,6786
2904.64,6846
2903.68,6897
2902.71,6952
2901.75,7002
2900.78,7038
2899.82,7063
2898.86,7087
2897.89,7121
2896.93,7154
2895.96,7170
2895.00,7174
2894.03,7185
2893.07,7208
2892.11,7246
2891.14,7302
2890.18,7373
2889.21,7459
2888.25,7570
2887.29,7730
2886.32,7965
2885.36,8278
2884.39,8661
2883.43,9039
2882.46,9333
2881.50,9518
2880.54,9490
2879.57,9280
2878.61,8846
2877.64,8310
2876.68,7808
2875.71,7376
2874.75,7063
2873.79,6839
2872.82,6688
2871.86,6589
2870.89,6525
2869.93,6491
2868.96,6474
2868.00,6483
2867.04,6509
2866.07,6544
2865.11,6580
2864.14,6628
2863.18,6698
2862.22,6769
2861.25,6829
2860.29,6895
2859.32,6978
2858.36,7071
2857.39,7165
2856.43,7261
2855.47,7369
2854.50,7496
2853.54,7638
2852.57,7776
2851.61,7905
2850.64,8008
2849.68,8085
2848.72,8096
2847.75,8003
2846.79,7810
2845.82,7508
2844.86,7102
2843.89,6591
2842.93,6021
2841.97,5427
2841.00,4836
2840.04,4261
2839.07,3722
2838.11,3223
2837.15,2779
2836.18,2404
2835.22,2081
2834.25,1802
2833.29,1565
2832.32,1367
2831.36,1203
2830.40,1066
2829.43,950
2828.47,851
2827.50,767
2826.54,695
2825.57,630
2824.61,569
2823.65,518
2822.68,479
2821.72,446
2820.75,413
2819.79,382
2818.82,352
2817.86,325
2816.90,304
2815.93,282
2814.97,258
2814.00,241
2813.04,228
2812.08,213
2811.11,194
2810.15,180
2809.18,170
2808.22,163
2807.25,155
2806.29,144
2805.33,130
2804.36,120
2803.40,114
2802.43,107
2801.47,99
2800.50,90
2799.54,84
2798.58,79
2797.61,75
2796.65,71
2795.68,67
2794.72,61
2793.75,51
2792.79,43
2791.83,40
2790.86,36
2789.90,31
2788.93,26
2787.97,22
2787.00,22
2786.04,25
2785.08,26
2784.11,22
2783.15,16
2782.18,12
2781.22,8
2780.26,4
2779.29,2
2778.33,4
2777.36,6
2776.40,7
2775.43,5
2774.47,0
2773.51,-0
2772.54,4
2771.58,7
2770.61,7
2769.65,5
2768.68,4
2767.72,7
2766.76,11
2765.79,14
2764.83,14
2763.86,14
2762.90,14
2761.93,16
2760.97,22
2760.01,29
2759.04,32
2758.08,36
2757.11,42
2756.15,47
2755.19,50
2754.22,53
2753.26,58
2752.29,65
2751.33,73
2750.36,82
2749.40,91
2748.44,98
2747.47,103
2746.51,106
2745.54,112
2744.58,120
2743.61,130
2742.65,143
2741.69,158
2740.72,173
2739.76,184
2738.79,196
2737.83,213
2736.86,234
2735.90,252
2734.94,270
2733.97,292
2733.01,314
2732.04,334
2731.08,353
2730.12,374
2729.15,396
2728.19,417
2727.22,435
2726.26,448
2725.29,454
2724.33,458
2723.37,460
2722.40,460
2721.44,456
2720.47,451
2719.51,445
2718.54,436
2717.58,424
2716.62,413
2715.65,401
2714.69,388
2713.72,374
2712.76,354
2711.79,328
2710.83,309
2709.87,299
2708.90,286
2707.94,263
2706.97,244
2706.01,229
2705.05,214
2704.08,202
2703.12,193
2702.15,182
2701.19,170
2700.22,157
2699.26,143
2698.30,127
2697.33,116
2696.37,110
2695.40,105
2694.44,97
2693.47,90
2692.51,84
2691.55,80
2690.58,77
2689.62,75
2688.65,71
2687.69,65
2686.72,57
2685.76,52
2684.80,51
2683.83,48
2682.87,42
2681.90,34
2680.94,29
2679.98,27
2679.01,25
2678.05,24
2677.08,22
2676.12,20
2675.15,19
2674.19,16
2673.23,10
2672.26,4
2671.30,-1
2670.33,-3
2669.37,-2
2668.40,-1
2667.44,-0
2666.48,1
2665.51,3
2664.55,5
2663.58,6
2662.62,5
2661.65,2
2660.69,1
2659.73,2
2658.76,6
2657.80,8
2656.83,9
2655.87,8
2654.91,5
2653.94,2
2652.98,1
2652.01,3
2651.05,6
2650.08,7
2649.12,5
2648.16,-2
2647.19,-11
2646.23,-15
2645.26,-8
2644.30,-6
2643.33,-9
2642.37,-11
2641.41,-11
2640.44,-12
2639.48,-15
2638.51,-18
2637.55,-18
2636.58,-18
2635.62,-23
2634.66,-27
2633.69,-24
2632.73,-21
2631.76,-23
2630.80,-23
2629.83,-20
2628.87,-14
2627.91,-9
2626.94,-9
2625.98,-15
2625.01,-23
2624.05,-21
2623.09,-13
2622.12,-9
2621.16,-9
2620.19,-8
2619.23,-5
2618.26,-5
2617.30,-5
2616.34,-3
2615.37,-0
2614.41,0
2613.44,-3
2612.48,-2
2611.51,1
2610.55,2
2609.59,1
2608.62,4
2607.66,9
2606.69,12
2605.73,14
2604.76,15
2603.80,15
2602.84,16
2601.87,20
2600.91,21
2599.94,19
2598.98,17
2598.02,16
2597.05,16
2596.09,18
2595.12,21
2594.16,23
2593.19,23
2592.23,23
2591.27,21
2590.30,19
2589.34,18
2588.37,23
2587.41,30
2586.44,27
2585.48,20
2584.52,20
2583.55,23
2582.59,19
2581.62,15
2580.66,15
2579.69,16
2578.73,14
2577.77,10
2576.80,7
2575.84,8
2574.87,9
2573.91,9
2572.95,9
2571.98,7
2571.02,4
2570.05,6
2569.09,8
2568.12,8
2567.16,9
2566.20,9
2565.23,8
2564.27,9
2563.30,9
2562.34,4
2561.37,1
2560.41,4
2559.45,7
2558.48,8
2557.52,9
2556.55,7
2555.59,6
2554.62,4
2553.66,1
2552.70,0
2551.73,0
2550.77,-1
2549.80,-4
2548.84,-6
2547.88,-7
2546.91,-4
2545.95,2
2544.98,4
2544.02,3
2543.05,4
2542.09,3
2541.13,-0
2540.16,-5
2539.20,-8
2538.23,-6
2537.27,-2
2536.30,-1
2535.34,-3
2534.38,-5
2533.41,-7
2532.45,-8
2531.48,-8
2530.52,-6
2529.55,-5
2528.59,-4
2527.63,-3
2526.66,-2
2525.70,-1
2524.73,-1
2523.77,-2
2522.81,-4
2521.84,-5
2520.88,-7
2519.91,-10
2518.95,-7
2517.98,-4
2517.02,-4
2516.06,-3
2515.09,0
2514.13,4
2513.16,5
2512.20,2
2511.23,-2
2510.27,-1
2509.31,1
2508.34,0
2507.38,1
2506.41,-1
2505.45,-3
2504.48,-3
2503.52,-0
2502.56,2
2501.59,3
2500.63,2
2499.66,-0
2498.70,-3
2497.74,-4
2496.77,-1
2495.81,3
2494.84,5
2493.88,5
2492.91,-1
2491.95,-8
2490.99,-6
2490.02,3
2489.06,9
2488.09,8
2487.13,5
2486.16,0
2485.20,-3
2484.24,-4
2483.27,-1
2482.31,2
2481.34,2
2480.38,-2
2479.41,-6
2478.45,-9
2477.49,-8
2476.52,-7
2475.56,-5
2474.59,-4
2473.63,-4
2472.66,-5
2471.70,-7
2470.74,-8
2469.77,-7
2468.81,-4
2467.84,0
2466.88,-0
2465.92,-5
2464.95,-7
2463.99,-5
2463.02,-3
2462.06,-3
2461.09,-2
2460.13,-1
2459.17,0
2458.20,2
2457.24,4
2456.27,4
2455.31,5
2454.34,7
2453.38,11
2452.42,15
2451.45,16
2450.49,15
2449.52,14
2448.56,14
2447.59,15
2446.63,18
2445.67,23
2444.70,27
2443.74,33
2442.77,40
2441.81,47
2440.85,49
2439.88,49
2438.92,49
2437.95,50
2436.99,52
2436.02,52
2435.06,51
2434.10,47
2433.13,43
2432.17,38
2431.20,35
2430.24,33
2429.27,33
2428.31,31
2427.35,28
2426.38,26
2425.42,25
2424.45,24
2423.49,23
2422.52,21
2421.56,18
2420.60,16
2419.63,18
2418.67,16
2417.70,13
2416.74,10
2415.78,7
2414.81,2
2413.85,-3
2412.88,-5
2411.92,-2
2410.95,4
2409.99,6
2409.03,3
2408.06,-3
2407.10,-8
2406.13,-10
2405.17,-8
2404.20,-5
2403.24,-3
2402.28,1
2401.31,4
2400.35,3
2399.38,1
2398.42,0
2397.45,1
2396.49,0
2395.53,-4
2394.56,-7
2393.60,-4
2392.63,1
2391.67,-2
2390.71,-7
2389.74,-7
2388.78,-4
2387.81,2
2386.85,8
2385.88,7
2384.92,4
2383.96,-1
2382.99,-6
2382.03,-9
2381.06,-6
2380.10,-3
2379.13,-1
2378.17,1
2377.21,4
2376.24,4
2375.28,1
2374.31,-3
2373.35,-5
2372.38,-6
2371.42,-6
2370.46,-5
2369.49,-3
2368.53,-3
2367.56,-3
2366.60,-3
2365.64,0
2364.67,3
2363.71,-1
2362.74,-8
2361.78,-10
2360.81,-10
2359.85,-8
2358.89,-7
2357.92,-9
2356.96,-10
2355.99,-10
2355.03,-8
2354.06,-6
2353.10,-4
2352.14,-6
2351.17,-11
2350.21,-15
2349.24,-15
2348.28,-12
2347.31,-8
2346.35,-5
2345.39,-7
2344.42,-12
2343.46,-15
2342.49,-13
2341.53,-13
2340.57,-17
2339.60,-18
2338.64,-14
2337.67,-9
2336.71,-7
2335.74,-9
2334.78,-12
2333.82,-16
2332.85,-18
2331.89,-18
2330.92,-12
2329.96,-4
2328.99,2
2328.03,3
2327.07,0
2326.10,-4
2325.14,-6
2324.17,-6
2323.21,-7
2322.24,-10
2321.28,-15
2320.32,-19
2319.35,-19
2318.39,-14
2317.42,-8
2316.46,-6
2315.49,-9
2314.53,-11
2313.57,-11
2312.60,-10
2311.64,-8
2310.67,-8
2309.71,-8
2308.75,-8
2307.78,-6
2306.82,-6
2305.85,-7
2304.89,-10
2303.92,-12
2302.96,-13
2302.00,-11
2301.03,-11
2300.07,-10
2299.10,-6
2298.14,-4
2297.17,-4
2296.21,-5
2295.25,-8
2294.28,-11
2293.32,-9
2292.35,-5
2291.39,-2
2290.42,-1
2289.46,-2
2288.50,-5
2287.53,-6
2286.57,-4
2285.60,-4
2284.64,-6
2283.68,-4
2282.71,0
2281.75,3
2280.78,6
2279.82,7
2278.85,7
2277.89,5
2276.93,1
2275.96,-0
2275.00,1
2274.03,1
2273.07,-0
2272.10,-1
2271.14,-0
2270.18,2
2269.21,-0
2268.25,-4
2267.28,-4
2266.32,-2
2265.35,-0
2264.39,0
2263.43,2
2262.46,5
2261.50,6
2260.53,4
2259.57,4
2258.61,8
2257.64,6
2256.68,-2
2255.71,-8
2254.75,-6
2253.78,1
2252.82,7
2251.86,8
2250.89,6
2249.93,3
2248.96,6
2248.00,14
2247.03,15
2246.07,5
2245.11,-2
2244.14,-6
2243.18,-6
2242.21,-2
2241.25,1
2240.28,-1
2239.32,-3
2238.36,-2
2237.39,1
2236.43,2
2235.46,-1
2234.50,-4
2233.54,-4
2232.57,-2
2231.61,-1
2230.64,2
2229.68,6
2228.71,5
2227.75,-4
2226.79,-13
2225.82,-17
2224.86,-18
2223.89,-14
2222.93,-7
2221.96,-1
2221.00,1
2220.04,2
2219.07,-1
2218.11,-6
2217.14,-8
2216.18,-6
2215.21,-2
2214.25,3
2213.29,5
2212.32,2
2211.36,-2
2210.39,-3
2209.43,-3
2208.47,-3
2207.50,-3
2206.54,-0
2205.57,2
2204.61,6
2203.64,10
2202.68,12
2201.72,14
2200.75,16
2199.79,17
2198.82,14
2197.86,10
2196.89,11
2195.93,13
2194.97,11
2194.00,6
2193.04,6
2192.07,13
2191.11,23
2190.14,32
2189.18,37
2188.22,37
2187.25,36
2186.29,38
2185.32,40
2184.36,41
2183.40,40
2182.43,40
2181.47,39
2180.50,38
2179.54,36
2178.57,34
2177.61,31
2176.65,28
2175.68,25
2174.72,21
2173.75,18
2172.79,16
2171.82,18
2170.86,19
2169.90,19
2168.93,16
2167.97,13
2167.00,9
2166.04,5
2165.07,3
2164.11,4
2163.15,6
2162.18,8
2161.22,8
2160.25,6
2159.29,4
2158.32,3
2157.36,5
2156.40,5
2155.43,3
2154.47,-2
2153.50,-3
2152.54,0
2151.58,2
2150.61,1
2149.65,-4
2148.68,-9
2147.72,-13
2146.75,-9
2145.79,-3
2144.83,-1
2143.86,-2
2142.90,-6
2141.93,-12
2140.97,-16
2140.00,-16
2139.04,-14
2138.08,-12
2137.11,-11
2136.15,-9
2135.18,-8
2134.22,-7
2133.25,-6
2132.29,-7
2131.33,-9
2130.36,-11
2129.40,-11
2128.43,-12
2127.47,-12
2126.51,-12
2125.54,-11
2124.58,-10
2123.61,-11
2122.65,-13
2121.68,-15
2120.72,-15
2119.76,-12
2118.79,-7
2117.83,-6
2116.86,-8
2115.90,-9
2114.93,-7
2113.97,-6
2113.01,-8
2112.04,-10
2111.08,-9
2110.11,-7
2109.15,-8
2108.18,-9
2107.22,-9
2106.26,-7
2105.29,-6
2104.33,-4
2103.36,-3
2102.40,-4
2101.44,-4
2100.47,-4
2099.51,-5
2098.54,-8
2097.58,-11
2096.61,-11
2095.65,-10
2094.69,-12
2093.72,-16
2092.76,-16
2091.79,-12
2090.83,-10
2089.86,-9
2088.90,-9
2087.94,-8
2086.97,-6
2086.01,-7
2085.04,-7
2084.08,-2
2083.11,4
2082.15,6
2081.19,5
2080.22,3
2079.26,0
2078.29,-1
2077.33,-0
2076.37,1
2075.40,0
2074.44,-0
2073.47,-1
2072.51,-0
2071.54,-0
2070.58,-0
2069.62,-0
2068.65,0
2067.69,2
2066.72,4
2065.76,6
2064.79,10
2063.83,13
2062.87,12
2061.90,9
2060.94,7
2059.97,7
2059.01,5
2058.04,3
2057.08,2
2056.12,4
2055.15,5
2054.19,4
2053.22,4
2052.26,3
2051.30,1
2050.33,4
2049.37,8
2048.40,9
2047.44,9
2046.47,8
2045.51,7
2044.55,6
2043.58,5
2042.62,5
2041.65,4
2040.69,5
2039.72,8
2038.76,12
2037.80,11
2036.83,8
2035.87,3
2034.90,-0
2033.94,-1
2032.97,2
2032.01,4
2031.05,3
2030.08,2
2029.12,2
2028.15,2
2027.19,2
2026.23,2
2025.26,2
2024.30,-0
2023.33,-2
2022.37,-2
2021.40,-1
2020.44,1
2019.48,0
2018.51,-3
2017.55,-6
2016.58,-6
2015.62,-3
2014.65,-3
2013.69,-4
2012.73,-1
2011.76,5
2010.80,11
2009.83,14
2008.87,13
2007.90,11
2006.94,7
2005.98,5
2005.01,3
2004.05,-0
2003.08,-3
2002.12,-4
2001.15,-1
2000.19,2
1999.23,1
1998.26,-1
1997.30,-3
1996.33,-3
1995.37,-2
1994.41,1
1993.44,-1
1992.48,-6
1991.51,-5
1990.55,0
1989.58,6
1988.62,10
1987.66,14
1986.69,13
1985.73,9
1984.76,6
1983.80,4
1982.83,4
1981.87,7
1980.91,9
1979.94,10
1978.98,8
1978.01,5
1977.05,5
1976.08,7
1975.12,8
1974.16,8
1973.19,7
1972.23,5
1971.26,6
1970.30,9
1969.34,12
1968.37,12
1967.41,10
1966.44,7
1965.48,8
1964.51,11
1963.55,13
1962.59,13
1961.62,14
1960.66,14
1959.69,10
1958.73,4
1957.76,-1
1956.80,-2
1955.84,-0
1954.87,5
1953.91,12
1952.94,12
1951.98,9
1951.01,8
1950.05,8
1949.09,10
1948.12,13
1947.16,14
1946.19,11
1945.23,7
1944.27,5
1943.30,7
1942.34,9
1941.37,12
1940.41,14
1939.44,13
1938.48,10
1937.52,6
1936.55,4
1935.59,3
1934.62,4
1933.66,6
1932.69,6
1931.73,7
1930.77,8
1929.80,7
1928.84,5
1927.87,3
1926.91,2
1925.94,0
1924.98,1
1924.02,2
1923.05,1
1922.09,0
1921.12,-0
1920.16,1
1919.20,2
1918.23,4
1917.27,6
1916.30,3
1915.34,-2
1914.37,-5
1913.41,-5
1912.45,-6
1911.48,-9
1910.52,-7
1909.55,-1
1908.59,3
1907.62,-1
1906.66,-6
1905.70,-7
1904.73,-5
1903.77,-2
1902.80,-1
1901.84,0
1900.87,1
1899.91,1
1898.95,3
1897.98,8
1897.02,8
1896.05,7
1895.09,8
1894.13,9
1893.16,8
1892.20,8
1891.23,7
1890.27,6
1889.30,4
1888.34,1
1887.38,1
1886.41,7
1885.45,16
1884.48,21
1883.52,20
1882.55,15
1881.59,11
1880.63,9
1879.66,10
1878.70,12
1877.73,13
1876.77,13
1875.80,11
1874.84,10
1873.88,13
1872.91,16
1871.95,19
1870.98,20
1870.02,18
1869.06,17
1868.09,18
1867.13,20
1866.16,19
1865.20,18
1864.23,16
1863.27,17
1862.31,22
1861.34,25
1860.38,23
1859.41,18
1858.45,17
1857.48,20
1856.52,21
1855.56,20
1854.59,20
1853.63,22
1852.66,25
1851.70,24
1850.73,19
1849.77,14
1848.81,10
1847.84,11
1846.88,16
1845.91,18
1844.95,18
1843.98,18
1843.02,20
1842.06,22
1841.09,22
1840.13,19
1839.16,13
1838.20,9
1837.24,8
1836.27,9
1835.31,10
1834.34,9
1833.38,6
1832.41,7
1831.45,9
1830.49,8
1829.52,4
1828.56,2
1827.59,1
1826.63,2
1825.66,7
1824.70,13
1823.74,12
1822.77,7
1821.81,6
1820.84,5
1819.88,1
1818.91,-4
1817.95,-4
1816.99,0
1816.02,3
1815.06,1
1814.09,-1
1813.13,-1
1812.17,3
1811.20,6
1810.24,10
1809.27,11
1808.31,11
1807.34,10
1806.38,10
1805.42,9
1804.45,6
1803.49,1
1802.52,-1
1801.56,-0
1800.59,2
1799.63,5
1798.67,8
1797.70,9
1796.74,9
1795.77,9
1794.81,9
1793.84,9
1792.88,8
1791.92,7
1790.95,5
1789.99,3
1789.02,4
1788.06,6
1787.10,7
1786.13,7
1785.17,8
1784.20,12
1783.24,17
1782.27,19
1781.31,18
1780.35,17
1779.38,16
1778.42,15
1777.45,13
1776.49,15
1775.52,18
1774.56,19
1773.60,18
1772.63,18
1771.67,20
1770.70,24
1769.74,26
1768.77,22
1767.81,20
1766.85,21
1765.88,23
1764.92,19
1763.95,15
1762.99,20
1762.03,29
1761.06,29
1760.10,25
1759.13,21
1758.17,18
1757.20,16
1756.24,15
1755.28,17
1754.31,22
1753.35,28
1752.38,34
1751.42,38
1750.45,42
1749.49,50
1748.53,62
1747.56,79
1746.60,98
1745.63,116
1744.67,132
1743.70,147
1742.74,159
1741.78,170
1740.81,178
1739.85,181
1738.88,178
1737.92,170
1736.96,163
1735.99,158
1735.03,152
1734.06,143
1733.10,134
1732.13,122
1731.17,109
1730.21,95
1729.24,83
1728.28,75
1727.31,68
1726.35,60
1725.38,47
1724.42,32
1723.46,22
1722.49,16
1721.53,12
1720.56,10
1719.60,10
1718.63,9
1717.67,7
1716.71,5
1715.74,3
1714.78,1
1713.81,0
1712.85,-1
1711.89,-3
1710.92,-5
1709.96,-4
1708.99,-3
1708.03,-5
1707.06,-8
1706.10,-9
1705.14,-8
1704.17,-6
1703.21,-4
1702.24,-3
1701.28,-3
1700.31,-3
1699.35,-3
1698.39,-2
1697.42,-2
1696.46,-1
1695.49,-3
1694.53,-7
1693.56,-9
1692.60,-5
1691.64,0
1690.67,1
1689.71,0
1688.74,0
1687.78,1
1686.81,3
1685.85,5
1684.89,5
1683.92,3
1682.96,1
1681.99,0
1681.03,1
1680.07,3
