Created As Omnic File,PLAS 096
Raman Shift / cm-1,INT
3418.58,4
3417.61,7
3416.65,5
3415.68,2
3414.72,0
3413.76,-0
3412.79,-0
3411.83,-2
3410.86,-4
3409.90,-5
3408.94,-5
3407.97,-5
3407.01,-5
3406.04,-5
3405.08,-6
3404.11,-7
3403.15,-8
3402.19,-9
3401.22,-11
3400.26,-13
3399.29,-13
3398.33,-11
3397.36,-10
3396.40,-13
3395.44,-14
3394.47,-12
3393.51,-11
3392.54,-11
3391.58,-10
3390.61,-8
3389.65,-8
3388.69,-9
3387.72,-9
3386.76,-8
3385.79,-9
3384.83,-10
3383.87,-11
3382.90,-11
3381.94,-9
3380.97,-9
3380.01,-11
3379.04,-12
3378.08,-9
3377.12,-6
3376.15,-2
3375.19,-1
3374.22,-2
3373.26,1
3372.29,3
3371.33,1
3370.37,-1
3369.40,1
3368.44,4
3367.47,5
3366.51,6
3365.54,6
3364.58,8
3363.62,11
3362.65,13
3361.69,15
3360.72,19
3359.76,23
3358.80,26
3357.83,28
3356.87,31
3355.90,34
3354.94,37
3353.97,40
3353.01,41
3352.05,44
3351.08,48
3350.12,54
3349.15,60
3348.19,65
3347.22,69
3346.26,74
3345.30,79
3344.33,84
3343.37,88
3342.40,94
3341.44,101
3340.47,107
3339.51,114
3338.55,123
3337.58,131
3336.62,138
3335.65,145
3334.69,152
3333.73,160
3332.76,169
3331.80,179
3330.83,190
3329.87,199
3328.90,207
3327.94,216
3326.98,228
3326.01,243
3325.05,257
3324.08,266
3323.12,277
3322.15,291
3321.19,304
3320.23,316
3319.26,330
3318.30,344
3317.33,357
3316.37,370
3315.40,383
3314.44,397
3313.48,412
3312.51,427
3311.55,442
3310.58,458
3309.62,475
3308.66,492
3307.69,504
3306.73,517
3305.76,529
3304.80,540
3303.83,550
3302.87,555
3301.91,556
3300.94,557
3299.98,557
3299.01,551
3298.05,541
3297.08,525
3296.12,505
3295.16,488
3294.19,471
3293.23,450
3292.26,429
3291.30,409
3290.33,385
3289.37,361
3288.41,340
3287.44,322
3286.48,307
3285.51,293
3284.55,278
3283.59,262
3282.62,248
3281.66,235
3280.69,225
3279.73,216
3278.76,207
3277.80,198
3276.84,187
3275.87,178
3274.91,171
3273.94,163
3272.98,156
3272.01,149
3271.05,144
3270.09,139
3269.12,133
3268.16,128
3267.19,123
3266.23,116
3265.26,110
3264.30,104
3263.34,98
3262.37,93
3261.41,89
3260.44,86
3259.48,81
3258.51,76
3257.55,72
3256.59,71
3255.62,67
3254.66,61
3253.69,56
3252.73,50
3251.77,46
3250.80,41
3249.84,38
3248.87,36
3247.91,34
3246.94,32
3245.98,29
3245.02,26
3244.05,21
3243.09,18
3242.12,17
3241.16,14
3240.19,10
3239.23,8
3238.27,8
3237.30,8
3236.34,6
3235.37,2
3234.41,-2
3233.44,-3
3232.48,-3
3231.52,-3
3230.55,-5
3229.59,-6
3228.62,-8
3227.66,-10
3226.70,-12
3225.73,-13
3224.77,-12
3223.80,-10
3222.84,-9
3221.87,-13
3220.91,-15
3219.95,-13
3218.98,-11
3218.02,-10
3217.05,-9
3216.09,-10
3215.12,-9
3214.16,-7
3213.20,-5
3212.23,-5
3211.27,-6
3210.30,-7
3209.34,-7
3208.37,-7
3207.41,-5
3206.45,-3
3205.48,-4
3204.52,-5
3203.55,-2
3202.59,0
3201.63,-2
3200.66,-3
3199.70,-3
3198.73,-4
3197.77,-4
3196.80,-5
3195.84,-4
3194.88,-3
3193.91,-0
3192.95,1
3191.98,1
3191.02,1
3190.05,0
3189.09,0
3188.13,1
3187.16,1
3186.20,1
3185.23,3
3184.27,4
3183.30,2
3182.34,1
3181.38,2
3180.41,3
3179.45,5
3178.48,6
3177.52,6
3176.56,5
3175.59,4
3174.63,2
3173.66,1
3172.70,0
3171.73,-0
3170.77,1
3169.81,3
3168.84,3
3167.88,2
3166.91,2
3165.95,3
3164.98,3
3164.02,2
3163.06,1
3162.09,1
3161.13,4
3160.16,6
3159.20,4
3158.23,1
3157.27,-1
3156.31,-1
3155.34,1
3154.38,2
3153.41,1
3152.45,-2
3151.49,-2
3150.52,-1
3149.56,-0
3148.59,-0
3147.63,-1
3146.66,-1
3145.70,-0
3144.74,-0
3143.77,-1
3142.81,-1
3141.84,-1
3140.88,0
3139.91,1
3138.95,1
3137.99,0
3137.02,-1
3136.06,-3
3135.09,-3
3134.13,-3
3133.16,-4
3132.20,-4
3131.24,-5
3130.27,-7
3129.31,-10
3128.34,-10
3127.38,-8
3126.42,-7
3125.45,-9
3124.49,-9
3123.52,-9
3122.56,-10
3121.59,-12
3120.63,-13
3119.67,-14
3118.70,-14
3117.74,-14
3116.77,-15
3115.81,-16
3114.84,-16
3113.88,-16
3112.92,-15
3111.95,-15
3110.99,-15
3110.02,-14
3109.06,-13
3108.09,-12
3107.13,-14
3106.17,-16
3105.20,-17
3104.24,-16
3103.27,-15
3102.31,-12
3101.34,-10
3100.38,-10
3099.42,-10
3098.45,-9
3097.49,-8
3096.52,-9
3095.56,-9
3094.60,-8
3093.63,-7
3092.67,-7
3091.70,-7
3090.74,-7
3089.77,-6
3088.81,-4
3087.85,-3
3086.88,0
3085.92,3
3084.95,4
3083.99,4
3083.02,3
3082.06,1
3081.10,2
3080.13,3
3079.17,4
3078.20,5
3077.24,7
3076.27,8
3075.31,9
3074.35,10
3073.38,11
3072.42,11
3071.45,12
3070.49,12
3069.53,12
3068.56,12
3067.60,14
3066.63,15
3065.67,13
3064.70,13
3063.74,12
3062.78,12
3061.81,11
3060.85,12
3059.88,12
3058.92,14
3057.95,16
3056.99,17
3056.03,17
3055.06,14
3054.10,12
3053.13,13
3052.17,16
3051.20,17
3050.24,17
3049.28,16
3048.31,16
3047.35,16
3046.38,16
3045.42,17
3044.46,17
3043.49,16
3042.53,16
3041.56,16
3040.60,18
3039.63,19
3038.67,20
3037.71,21
3036.74,23
3035.78,25
3034.81,25
3033.85,23
3032.88,24
3031.92,29
3030.96,32
3029.99,32
3029.03,33
3028.06,36
3027.10,38
3026.13,40
3025.17,43
3024.21,45
3023.24,46
3022.28,46
3021.31,48
3020.35,49
3019.39,51
3018.42,56
3017.46,63
3016.49,69
3015.53,73
3014.56,76
3013.60,81
3012.64,86
3011.67,89
3010.71,91
3009.74,95
3008.78,100
3007.81,104
3006.85,109
3005.89,113
3004.92,118
3003.96,126
3002.99,134
3002.03,144
3001.06,153
3000.10,158
2999.14,164
2998.17,173
2997.21,182
2996.24,193
2995.28,204
2994.32,218
2993.35,233
2992.39,248
2991.42,262
2990.46,276
2989.49,292
2988.53,311
2987.57,330
2986.60,347
2985.64,366
2984.67,388
2983.71,414
2982.74,443
2981.78,472
2980.82,502
2979.85,534
2978.89,568
2977.92,603
2976.96,639
2975.99,677
2975.03,717
2974.07,760
2973.10,805
2972.14,854
2971.17,904
2970.21,956
2969.25,1009
2968.28,1059
2967.32,1112
2966.35,1174
2965.39,1236
2964.42,1290
2963.46,1341
2962.50,1390
2961.53,1439
2960.57,1487
2959.60,1534
2958.64,1580
2957.67,1629
2956.71,1682
2955.75,1737
2954.78,1793
2953.82,1852
2952.85,1918
2951.89,1994
2950.92,2082
2949.96,2169
2949.00,2247
2948.03,2334
2947.07,2432
2946.10,2534
2945.14,2638
2944.17,2744
2943.21,2854
2942.25,2974
2941.28,3099
2940.32,3218
2939.35,3328
2938.39,3436
2937.43,3542
2936.46,3642
2935.50,3735
2934.53,3822
2933.57,3904
2932.60,3978
2931.64,4039
2930.68,4087
2929.71,4126
2928.75,4163
2927.78,4197
2926.82,4217
2925.85,4219
2924.89,4212
2923.93,4198
2922.96,4172
2922.00,4143
2921.03,4133
2920.07,4134
2919.10,4140
2918.14,4153
2917.18,4182
2916.21,4222
2915.25,4270
2914.28,4328
2913.32,4397
2912.36,4482
2911.39,4582
2910.43,4687
2909.46,4783
2908.50,4869
2907.53,4937
2906.57,4995
2905.61,5064
2904.64,5135
2903.68,5194
2902.71,5247
2901.75,5276
2900.78,5283
2899.82,5275
2898.86,5244
2897.89,5180
2896.93,5087
2895.96,4962
2895.00,4806
2894.03,4623
2893.07,4427
2892.11,4254
2891.14,4096
2890.18,3969
2889.21,3858
2888.25,3762
2887.29,3690
2886.32,3647
2885.36,3627
2884.39,3619
2883.43,3621
2882.46,3641
2881.50,3681
2880.54,3729
2879.57,3786
2878.61,3843
2877.64,3891
2876.68,3929
2875.71,3969
2874.75,4011
2873.79,4042
2872.82,4050
2871.86,4041
2870.89,4020
2869.93,3985
2868.96,3939
2868.00,3886
2867.04,3827
2866.07,3767
2865.11,3708
2864.14,3643
2863.18,3572
2862.22,3511
2861.25,3466
2860.29,3419
2859.32,3360
2858.36,3308
2857.39,3269
2856.43,3227
2855.47,3176
2854.50,3113
2853.54,3029
2852.57,2926
2851.61,2803
2850.64,2652
2849.68,2475
2848.72,2285
2847.75,2090
2846.79,1890
2845.82,1691
2844.86,1499
2843.89,1320
2842.93,1161
2841.97,1029
2841.00,914
2840.04,813
2839.07,728
2838.11,657
2837.15,598
2836.18,551
2835.22,510
2834.25,472
2833.29,439
2832.32,412
2831.36,392
2830.40,377
2829.43,361
2828.47,343
2827.50,328
2826.54,317
2825.57,306
2824.61,294
2823.65,282
2822.68,273
2821.72,266
2820.75,260
2819.79,252
2818.82,240
2817.86,226
2816.90,213
2815.93,201
2814.97,191
2814.00,183
2813.04,174
2812.08,162
2811.11,147
2810.15,135
2809.18,128
2808.22,122
2807.25,113
2806.29,104
2805.33,95
2804.36,89
2803.40,84
2802.43,81
2801.47,79
2800.50,76
2799.54,70
2798.58,64
2797.61,61
2796.65,59
2795.68,58
2794.72,56
2793.75,54
2792.79,52
2791.83,48
2790.86,47
2789.90,48
2788.93,49
2787.97,48
2787.00,49
2786.04,51
2785.08,53
2784.11,52
2783.15,51
2782.18,53
2781.22,55
2780.26,54
2779.29,54
2778.33,57
2777.36,60
2776.40,64
2775.43,67
2774.47,71
2773.51,76
2772.54,81
2771.58,84
2770.61,88
2769.65,90
2768.68,92
2767.72,95
2766.76,101
2765.79,105
2764.83,105
2763.86,106
2762.90,110
2761.93,115
2760.97,121
2760.01,127
2759.04,134
2758.08,141
2757.11,147
2756.15,152
2755.19,157
2754.22,163
2753.26,171
2752.29,180
2751.33,188
2750.36,197
2749.40,208
2748.44,218
2747.47,225
2746.51,228
2745.54,230
2744.58,232
2743.61,239
2742.65,246
2741.69,250
2740.72,249
2739.76,247
2738.79,244
2737.83,242
2736.86,240
2735.90,238
2734.94,235
2733.97,233
2733.01,229
2732.04,225
2731.08,222
2730.12,221
2729.15,222
2728.19,220
2727.22,218
2726.26,216
2725.29,215
2724.33,212
2723.37,210
2722.40,207
2721.44,205
2720.47,201
2719.51,195
2718.54,192
2717.58,191
2716.62,191
2715.65,191
2714.69,189
2713.72,186
2712.76,183
2711.79,179
2710.83,175
2709.87,169
2708.90,166
2707.94,165
2706.97,163
2706.01,162
2705.05,159
2704.08,155
2703.12,154
2702.15,156
2701.19,156
2700.22,154
2699.26,151
2698.30,148
2697.33,146
2696.37,144
2695.40,142
2694.44,141
2693.47,137
2692.51,133
2691.55,129
2690.58,125
2689.62,122
2688.65,121
2687.69,118
2686.72,114
2685.76,110
2684.80,107
2683.83,104
2682.87,101
2681.90,97
2680.94,93
2679.98,91
2679.01,90
2678.05,89
2677.08,89
2676.12,88
2675.15,85
2674.19,81
2673.23,79
2672.26,78
2671.30,76
2670.33,75
2669.37,75
2668.40,75
2667.44,74
2666.48,73
2665.51,72
2664.55,71
2663.58,71
2662.62,70
2661.65,68
2660.69,66
2659.73,65
2658.76,65
2657.80,66
2656.83,66
2655.87,65
2654.91,63
2653.94,60
2652.98,58
2652.01,57
2651.05,56
2650.08,56
2649.12,56
2648.16,55
2647.19,54
2646.23,54
2645.26,55
2644.30,55
2643.33,54
2642.37,56
2641.41,60
2640.44,62
2639.48,59
2638.51,55
2637.55,54
2636.58,53
2635.62,52
2634.66,51
2633.69,55
2632.73,58
2631.76,57
2630.80,56
2629.83,56
2628.87,57
2627.91,60
2626.94,62
2625.98,61
2625.01,58
2624.05,57
2623.09,58
2622.12,58
2621.16,58
2620.19,59
2619.23,61
2618.26,62
2617.30,64
2616.34,65
2615.37,65
2614.41,66
2613.44,69
2612.48,71
2611.51,71
2610.55,70
2609.59,69
2608.62,70
2607.66,72
2606.69,73
2605.73,74
2604.76,74
2603.80,74
2602.84,74
2601.87,72
2600.91,71
2599.94,71
2598.98,70
2598.02,69
2597.05,68
2596.09,68
2595.12,67
2594.16,64
2593.19,62
2592.23,62
2591.27,61
2590.30,58
2589.34,55
2588.37,53
2587.41,52
2586.44,49
2585.48,44
2584.52,43
2583.55,43
2582.59,38
2581.62,33
2580.66,33
2579.69,35
2578.73,34
2577.77,30
2576.80,26
2575.84,22
2574.87,20
2573.91,21
2572.95,23
2571.98,22
2571.02,21
2570.05,21
2569.09,22
2568.12,22
2567.16,23
2566.20,22
2565.23,21
2564.27,22
2563.30,23
2562.34,23
2561.37,22
2560.41,20
2559.45,19
2558.48,19
2557.52,21
2556.55,21
2555.59,22
2554.62,23
2553.66,22
2552.70,20
2551.73,16
2550.77,13
2549.80,12
2548.84,11
2547.88,11
2546.91,10
2545.95,8
2544.98,7
2544.02,6
2543.05,6
2542.09,6
2541.13,5
2540.16,2
2539.20,-1
2538.23,-1
2537.27,-0
2536.30,-0
2535.34,-0
2534.38,-0
2533.41,0
2532.45,-0
2531.48,-0
2530.52,-1
2529.55,-1
2528.59,-2
2527.63,-1
2526.66,-1
2525.70,-2
2524.73,-1
2523.77,-1
2522.81,-2
2521.84,-5
2520.88,-5
2519.91,-4
2518.95,-2
2517.98,-2
2517.02,-4
2516.06,-5
2515.09,-6
2514.13,-7
2513.16,-6
2512.20,-5
2511.23,-6
2510.27,-7
2509.31,-8
2508.34,-9
2507.38,-10
2506.41,-9
2505.45,-8
2504.48,-7
2503.52,-6
2502.56,-5
2501.59,-4
2500.63,-4
2499.66,-4
2498.70,-4
2497.74,-5
2496.77,-5
2495.81,-5
2494.84,-5
2493.88,-3
2492.91,-3
2491.95,-1
2490.99,-1
2490.02,-2
2489.06,-2
2488.09,-1
2487.13,-1
2486.16,-2
2485.20,-2
2484.24,-0
2483.27,2
2482.31,3
2481.34,3
2480.38,2
2479.41,1
2478.45,1
2477.49,-0
2476.52,-1
2475.56,-2
2474.59,0
2473.63,3
2472.66,3
2471.70,0
2470.74,-0
2469.77,2
2468.81,3
2467.84,4
2466.88,3
2465.92,0
2464.95,-2
2463.99,-3
2463.02,-3
2462.06,-3
2461.09,-2
2460.13,-4
2459.17,-5
2458.20,-6
2457.24,-7
2456.27,-5
2455.31,-3
2454.34,1
2453.38,4
2452.42,6
2451.45,6
2450.49,7
2449.52,7
2448.56,6
2447.59,4
2446.63,3
2445.67,4
2444.70,5
2443.74,6
2442.77,10
2441.81,16
2440.85,18
2439.88,17
2438.92,16
2437.95,16
2436.99,16
2436.02,17
2435.06,17
2434.10,15
2433.13,14
2432.17,12
2431.20,10
2430.24,10
2429.27,11
2428.31,8
2427.35,4
2426.38,3
2425.42,3
2424.45,2
2423.49,0
2422.52,-0
2421.56,-1
2420.60,-0
2419.63,-0
2418.67,-1
2417.70,0
2416.74,0
2415.78,-2
2414.81,-4
2413.85,-5
2412.88,-6
2411.92,-6
2410.95,-4
2409.99,-2
2409.03,-1
2408.06,-2
2407.10,-4
2406.13,-6
2405.17,-7
2404.20,-6
2403.24,-2
2402.28,-2
2401.31,-3
2400.35,-4
2399.38,-4
2398.42,-2
2397.45,-1
2396.49,-0
2395.53,-0
2394.56,-2
2393.60,-3
2392.63,-4
2391.67,-4
2390.71,-2
2389.74,0
2388.78,3
2387.81,6
2386.85,7
2385.88,7
2384.92,6
2383.96,5
2382.99,4
2382.03,2
2381.06,2
2380.10,3
2379.13,4
2378.17,6
2377.21,9
2376.24,10
2375.28,8
2374.31,6
2373.35,4
2372.38,3
2371.42,3
2370.46,4
2369.49,5
2368.53,5
2367.56,3
2366.60,0
2365.64,0
2364.67,2
2363.71,0
2362.74,-3
2361.78,-4
2360.81,-2
2359.85,-2
2358.89,-5
2357.92,-9
2356.96,-11
2355.99,-11
2355.03,-8
2354.06,-5
2353.10,-6
2352.14,-9
2351.17,-9
2350.21,-7
2349.24,-7
2348.28,-6
2347.31,-4
2346.35,-1
2345.39,-2
2344.42,-5
2343.46,-7
2342.49,-8
2341.53,-8
2340.57,-7
2339.60,-5
2338.64,-3
2337.67,-2
2336.71,-3
2335.74,-5
2334.78,-6
2333.82,-6
2332.85,-5
2331.89,-3
2330.92,0
2329.96,3
2328.99,7
2328.03,9
2327.07,9
2326.10,6
2325.14,2
2324.17,-3
2323.21,-6
2322.24,-4
2321.28,-2
2320.32,-4
2319.35,-6
2318.39,-6
2317.42,-5
2316.46,-5
2315.49,-6
2314.53,-7
2313.57,-7
2312.60,-6
2311.64,-5
2310.67,-4
2309.71,-4
2308.75,-4
2307.78,-4
2306.82,-4
2305.85,-6
2304.89,-7
2303.92,-6
2302.96,-4
2302.00,-4
2301.03,-4
2300.07,-5
2299.10,-4
2298.14,-4
2297.17,-4
2296.21,-4
2295.25,-4
2294.28,-4
2293.32,-3
2292.35,-2
2291.39,-0
2290.42,-0
2289.46,-0
2288.50,-1
2287.53,-1
2286.57,0
2285.60,1
2284.64,1
2283.68,1
2282.71,2
2281.75,3
2280.78,3
2279.82,5
2278.85,6
2277.89,6
2276.93,5
2275.96,5
2275.00,5
2274.03,5
2273.07,5
2272.10,5
2271.14,5
2270.18,6
2269.21,7
2268.25,7
2267.28,6
2266.32,6
2265.35,6
2264.39,6
2263.43,7
2262.46,7
2261.50,7
2260.53,7
2259.57,7
2258.61,7
2257.64,4
2256.68,1
2255.71,-0
2254.75,2
2253.78,6
2252.82,9
2251.86,10
2250.89,10
2249.93,11
2248.96,12
2248.00,11
2247.03,9
2246.07,6
2245.11,5
2244.14,4
2243.18,3
2242.21,3
2241.25,3
2240.28,2
2239.32,3
2238.36,5
2237.39,6
2236.43,6
2235.46,3
2234.50,1
2233.54,2
2232.57,3
2231.61,3
2230.64,3
2229.68,3
2228.71,2
2227.75,1
2226.79,1
2225.82,1
2224.86,0
2223.89,0
2222.93,2
2221.96,4
2221.00,5
2220.04,5
2219.07,3
2218.11,1
2217.14,1
2216.18,2
2215.21,3
2214.25,4
2213.29,6
2212.32,7
2211.36,7
2210.39,8
2209.43,9
2208.47,10
2207.50,9
2206.54,8
2205.57,8
2204.61,10
2203.64,12
2202.68,14
2201.72,15
2200.75,15
2199.79,15
2198.82,14
2197.86,13
2196.89,12
2195.93,11
2194.97,10
2194.00,9
2193.04,9
2192.07,9
2191.11,9
2190.14,10
2189.18,12
2188.22,13
2187.25,14
2186.29,12
2185.32,10
2184.36,9
2183.40,9
2182.43,7
2181.47,4
2180.50,3
2179.54,4
2178.57,4
2177.61,3
2176.65,4
2175.68,6
2174.72,7
2173.75,4
2172.79,2
2171.82,2
2170.86,3
2169.90,3
2168.93,3
2167.97,3
2167.00,3
2166.04,2
2165.07,0
2164.11,-1
2163.15,0
2162.18,2
2161.22,3
2160.25,3
2159.29,1
2158.32,-0
2157.36,0
2156.40,1
2155.43,1
2154.47,-0
2153.50,-1
2152.54,-0
2151.58,-0
2150.61,-2
2149.65,-4
2148.68,-5
2147.72,-6
2146.75,-6
2145.79,-6
2144.83,-7
2143.86,-9
2142.90,-9
2141.93,-8
2140.97,-9
2140.00,-10
2139.04,-11
2138.08,-11
2137.11,-11
2136.15,-11
2135.18,-10
2134.22,-9
2133.25,-7
2132.29,-8
2131.33,-10
2130.36,-11
2129.40,-10
2128.43,-11
2127.47,-11
2126.51,-11
2125.54,-11
2124.58,-10
2123.61,-8
2122.65,-7
2121.68,-8
2120.72,-10
2119.76,-10
2118.79,-10
2117.83,-10
2116.86,-11
2115.90,-11
2114.93,-11
2113.97,-10
2113.01,-10
2112.04,-9
2111.08,-9
2110.11,-9
2109.15,-9
2108.18,-10
2107.22,-11
2106.26,-12
2105.29,-12
2104.33,-12
2103.36,-11
2102.40,-9
2101.44,-7
2100.47,-7
2099.51,-7
2098.54,-8
2097.58,-10
2096.61,-12
2095.65,-13
2094.69,-11
2093.72,-8
2092.76,-7
2091.79,-8
2090.83,-7
2089.86,-5
2088.90,-5
2087.94,-5
2086.97,-6
2086.01,-6
2085.04,-6
2084.08,-4
2083.11,-2
2082.15,0
2081.19,2
2080.22,2
2079.26,1
2078.29,1
2077.33,3
2076.37,4
2075.40,4
2074.44,4
2073.47,4
2072.51,5
2071.54,5
2070.58,4
2069.62,4
2068.65,5
2067.69,8
2066.72,12
2065.76,16
2064.79,17
2063.83,17
2062.87,17
2061.90,16
2060.94,13
2059.97,11
2059.01,9
2058.04,8
2057.08,8
2056.12,8
2055.15,7
2054.19,7
2053.22,7
2052.26,7
2051.30,7
2050.33,7
2049.37,7
2048.40,8
2047.44,9
2046.47,8
2045.51,6
2044.55,5
2043.58,6
2042.62,8
2041.65,9
2040.69,9
2039.72,8
2038.76,7
2037.80,5
2036.83,2
2035.87,1
2034.90,1
2033.94,2
2032.97,2
2032.01,3
2031.05,5
2030.08,5
2029.12,3
2028.15,-0
2027.19,-2
2026.23,-1
2025.26,-0
2024.30,-0
2023.33,1
2022.37,2
2021.40,3
2020.44,4
2019.48,4
2018.51,1
2017.55,-2
2016.58,-3
2015.62,-2
2014.65,-2
2013.69,-1
2012.73,0
2011.76,1
2010.80,2
2009.83,4
2008.87,4
2007.90,4
2006.94,3
2005.98,0
2005.01,-4
2004.05,-7
2003.08,-6
2002.12,-4
2001.15,-1
2000.19,0
1999.23,-0
1998.26,-2
1997.30,-1
1996.33,0
1995.37,-0
1994.41,-2
1993.44,-0
1992.48,3
1991.51,4
1990.55,2
1989.58,2
1988.62,4
1987.66,6
1986.69,6
1985.73,4
1984.76,4
1983.80,4
1982.83,4
1981.87,5
1980.91,6
1979.94,5
1978.98,3
1978.01,2
1977.05,3
1976.08,5
1975.12,6
1974.16,6
1973.19,4
1972.23,4
1971.26,6
1970.30,9
1969.34,10
1968.37,10
1967.41,10
1966.44,8
1965.48,7
1964.51,6
1963.55,7
1962.59,8
1961.62,9
1960.66,9
1959.69,7
1958.73,5
1957.76,3
1956.80,3
1955.84,4
1954.87,6
1953.91,10
1952.94,10
1951.98,9
1951.01,8
1950.05,7
1949.09,7
1948.12,7
1947.16,8
1946.19,6
1945.23,4
1944.27,4
1943.30,5
1942.34,6
1941.37,5
1940.41,5
1939.44,5
1938.48,3
1937.52,0
1936.55,-2
1935.59,-3
1934.62,-3
1933.66,-3
1932.69,-2
1931.73,-2
1930.77,-1
1929.80,-1
1928.84,-2
1927.87,-3
1926.91,-5
1925.94,-7
1924.98,-7
1924.02,-6
1923.05,-6
1922.09,-6
1921.12,-7
1920.16,-8
1919.20,-8
1918.23,-5
1917.27,-2
1916.30,-1
1915.34,-2
1914.37,-3
1913.41,-4
1912.45,-6
1911.48,-7
1910.52,-8
1909.55,-6
1908.59,-4
1907.62,-4
1906.66,-4
1905.70,-5
1904.73,-5
1903.77,-6
1902.80,-8
1901.84,-9
1900.87,-7
1899.91,-6
1898.95,-6
1897.98,-5
1897.02,-5
1896.05,-5
1895.09,-4
1894.13,-4
1893.16,-4
1892.20,-4
1891.23,-5
1890.27,-7
1889.30,-8
1888.34,-7
1887.38,-6
1886.41,-2
1885.45,2
1884.48,4
1883.52,2
1882.55,-1
1881.59,-3
1880.63,-3
1879.66,-1
1878.70,1
1877.73,1
1876.77,0
1875.80,-1
1874.84,-1
1873.88,1
1872.91,3
1871.95,4
1870.98,3
1870.02,1
1869.06,-0
1868.09,0
1867.13,2
1866.16,4
1865.20,4
1864.23,4
1863.27,3
1862.31,4
1861.34,3
1860.38,1
1859.41,-0
1858.45,0
1857.48,3
1856.52,4
1855.56,4
1854.59,3
1853.63,5
1852.66,7
1851.70,5
1850.73,1
1849.77,-0
1848.81,1
1847.84,1
1846.88,1
1845.91,0
1844.95,0
1843.98,1
1843.02,1
1842.06,2
1841.09,3
1840.13,2
1839.16,-1
1838.20,-4
1837.24,-5
1836.27,-5
1835.31,-4
1834.34,-4
1833.38,-5
1832.41,-6
1831.45,-7
1830.49,-8
1829.52,-10
1828.56,-11
1827.59,-10
1826.63,-10
1825.66,-10
1824.70,-11
1823.74,-10
1822.77,-11
1821.81,-12
1820.84,-15
1819.88,-17
1818.91,-17
1817.95,-16
1816.99,-15
1816.02,-15
1815.06,-15
1814.09,-14
1813.13,-15
1812.17,-16
1811.20,-15
1810.24,-13
1809.27,-12
1808.31,-12
1807.34,-13
1806.38,-13
1805.42,-13
1804.45,-14
1803.49,-15
1802.52,-16
1801.56,-16
1800.59,-17
1799.63,-16
1798.67,-15
1797.70,-15
1796.74,-15
1795.77,-15
1794.81,-15
1793.84,-16
1792.88,-17
1791.92,-18
1790.95,-17
1789.99,-16
1789.02,-16
1788.06,-16
1787.10,-16
1786.13,-15
1785.17,-13
1784.20,-11
1783.24,-9
1782.27,-10
1781.31,-13
1780.35,-13
1779.38,-11
1778.42,-9
1777.45,-7
1776.49,-6
1775.52,-7
1774.56,-8
1773.60,-6
1772.63,-6
1771.67,-8
1770.70,-12
1769.74,-12
1768.77,-8
1767.81,-6
1766.85,-6
1765.88,-7
1764.92,-6
1763.95,-4
1762.99,-4
1762.03,-5
1761.06,-4
1760.10,-2
1759.13,-1
1758.17,-2
1757.20,-4
1756.24,-6
1755.28,-5
1754.31,-3
1753.35,-2
1752.38,-1
1751.42,-2
1750.45,-5
1749.49,-6
1748.53,-6
1747.56,-4
1746.60,-0
1745.63,1
1744.67,0
1743.70,-1
1742.74,-2
1741.78,-2
1740.81,-1
1739.85,-0
1738.88,0
1737.92,1
1736.96,0
1735.99,0
1735.03,1
1734.06,2
1733.10,3
1732.13,3
1731.17,2
1730.21,2
1729.24,2
1728.28,4
1727.31,5
1726.35,5
1725.38,3
1724.42,1
1723.46,-1
1722.49,-2
1721.53,-2
1720.56,-2
1719.60,-0
1718.63,1
1717.67,2
1716.71,2
1715.74,1
1714.78,0
1713.81,-0
1712.85,-1
1711.89,-1
1710.92,-1
1709.96,-0
1708.99,0
1708.03,-1
1707.06,-3
1706.10,-3
1705.14,-1
1704.17,0
1703.21,1
1702.24,2
1701.28,5
1700.31,8
1699.35,10
1698.39,11
1697.42,12
1696.46,13
1695.49,12
1694.53,10
1693.56,10
1692.60,14
1691.64,19
1690.67,24
1689.71,27
