Created As Omnic File,PLAS 113
Raman Shift / cm-1,INT
3418.58,5
3417.61,7
3416.65,6
3415.68,3
3414.72,3
3413.76,3
3412.79,3
3411.83,-0
3410.86,-9
3409.90,-11
3408.94,-4
3407.97,-1
3407.01,-7
3406.04,-14
3405.08,-16
3404.11,-11
3403.15,-2
3402.19,-1
3401.22,-7
3400.26,-7
3399.29,-5
3398.33,-9
3397.36,-13
3396.40,-12
3395.44,-9
3394.47,-2
3393.51,-2
3392.54,-6
3391.58,-3
3390.61,8
3389.65,13
3388.69,7
3387.72,-10
3386.76,-20
3385.79,-10
3384.83,2
3383.87,3
3382.90,0
3381.94,-3
3380.97,-3
3380.01,-2
3379.04,-8
3378.08,-15
3377.12,-7
3376.15,8
3375.19,15
3374.22,18
3373.26,18
3372.29,15
3371.33,11
3370.37,7
3369.40,3
3368.44,1
3367.47,-2
3366.51,-3
3365.54,0
3364.58,-1
3363.62,-3
3362.65,2
3361.69,9
3360.72,11
3359.76,8
3358.80,5
3357.83,5
3356.87,10
3355.90,11
3354.94,2
3353.97,-7
3353.01,-18
3352.05,-17
3351.08,-5
3350.12,5
3349.15,9
3348.19,9
3347.22,6
3346.26,7
3345.30,10
3344.33,12
3343.37,7
3342.40,-2
3341.44,-7
3340.47,-6
3339.51,-2
3338.55,1
3337.58,-2
3336.62,-9
3335.65,-14
3334.69,-16
3333.73,-9
3332.76,1
3331.80,9
3330.83,12
3329.87,1
3328.90,-18
3327.94,-29
3326.98,-30
3326.01,-23
3325.05,-10
3324.08,3
3323.12,3
3322.15,-7
3321.19,-6
3320.23,-1
3319.26,-4
3318.30,-9
3317.33,-8
3316.37,-5
3315.40,-3
3314.44,-2
3313.48,-9
3312.51,-16
3311.55,-14
3310.58,-13
3309.62,-12
3308.66,-7
3307.69,-1
3306.73,-0
3305.76,-3
3304.80,-4
3303.83,-4
3302.87,-3
3301.91,-3
3300.94,-0
3299.98,5
3299.01,1
3298.05,-4
3297.08,-3
3296.12,-3
3295.16,-1
3294.19,6
3293.23,14
3292.26,18
3291.30,15
3290.33,4
3289.37,-5
3288.41,-7
3287.44,-6
3286.48,-8
3285.51,-11
3284.55,-11
3283.59,-10
3282.62,-8
3281.66,-6
3280.69,-2
3279.73,4
3278.76,7
3277.80,6
3276.84,-0
3275.87,-8
3274.91,-15
3273.94,-14
3272.98,-9
3272.01,-10
3271.05,-14
3270.09,-10
3269.12,-2
3268.16,-4
3267.19,-11
3266.23,-8
3265.26,-1
3264.30,1
3263.34,-1
3262.37,-3
3261.41,-4
3260.44,-1
3259.48,-1
3258.51,-6
3257.55,-7
3256.59,0
3255.62,3
3254.66,4
3253.69,2
3252.73,-4
3251.77,-10
3250.80,-18
3249.84,-23
3248.87,-22
3247.91,-16
3246.94,-6
3245.98,-7
3245.02,-8
3244.05,1
3243.09,7
3242.12,2
3241.16,-5
3240.19,-9
3239.23,-11
3238.27,-14
3237.30,-10
3236.34,0
3235.37,2
3234.41,-2
3233.44,-4
3232.48,-4
3231.52,4
3230.55,10
3229.59,4
3228.62,-8
3227.66,-10
3226.70,-8
3225.73,-15
3224.77,-17
3223.80,-10
3222.84,-8
3221.87,-15
3220.91,-18
3219.95,-14
3218.98,-11
3218.02,-11
3217.05,-8
3216.09,3
3215.12,6
3214.16,-1
3213.20,-3
3212.23,-4
3211.27,-6
3210.30,-9
3209.34,-9
3208.37,-7
3207.41,-9
3206.45,-11
3205.48,-7
3204.52,-5
3203.55,-7
3202.59,-5
3201.63,5
3200.66,10
3199.70,5
3198.73,-1
3197.77,-6
3196.80,-8
3195.84,-6
3194.88,-2
3193.91,-1
3192.95,0
3191.98,1
3191.02,-1
3190.05,-3
3189.09,-6
3188.13,-8
3187.16,-3
3186.20,4
3185.23,5
3184.27,2
3183.30,-0
3182.34,-2
3181.38,-3
3180.41,-1
3179.45,1
3178.48,-1
3177.52,-6
3176.56,-5
3175.59,0
3174.63,-2
3173.66,-8
3172.70,-8
3171.73,2
3170.77,16
3169.81,26
3168.84,24
3167.88,15
3166.91,10
3165.95,7
3164.98,-1
3164.02,-9
3163.06,-10
3162.09,-5
3161.13,0
3160.16,3
3159.20,1
3158.23,-3
3157.27,1
3156.31,9
3155.34,14
3154.38,18
3153.41,12
3152.45,0
3151.49,-7
3150.52,-2
3149.56,9
3148.59,13
3147.63,10
3146.66,11
3145.70,14
3144.74,10
3143.77,4
3142.81,8
3141.84,15
3140.88,15
3139.91,12
3138.95,10
3137.99,10
3137.02,10
3136.06,9
3135.09,11
3134.13,13
3133.16,12
3132.20,13
3131.24,10
3130.27,4
3129.31,-1
3128.34,-1
3127.38,1
3126.42,-5
3125.45,-13
3124.49,-7
3123.52,7
3122.56,16
3121.59,19
3120.63,13
3119.67,9
3118.70,4
3117.74,-3
3116.77,-3
3115.81,-2
3114.84,-9
3113.88,-15
3112.92,-9
3111.95,3
3110.99,13
3110.02,16
3109.06,9
3108.09,2
3107.13,-1
3106.17,-4
3105.20,-6
3104.24,-9
3103.27,-18
3102.31,-17
3101.34,-7
3100.38,3
3099.42,14
3098.45,8
3097.49,-10
3096.52,-11
3095.56,-3
3094.60,-1
3093.63,-5
3092.67,-6
3091.70,-4
3090.74,-6
3089.77,-9
3088.81,0
3087.85,7
3086.88,5
3085.92,-1
3084.95,-7
3083.99,-6
3083.02,4
3082.06,11
3081.10,6
3080.13,-1
3079.17,-1
3078.20,-1
3077.24,0
3076.27,3
3075.31,5
3074.35,9
3073.38,12
3072.42,10
3071.45,11
3070.49,15
3069.53,20
3068.56,28
3067.60,38
3066.63,40
3065.67,36
3064.70,34
3063.74,30
3062.78,31
3061.81,32
3060.85,30
3059.88,29
3058.92,36
3057.95,48
3056.99,53
3056.03,49
3055.06,42
3054.10,39
3053.13,43
3052.17,48
3051.20,49
3050.24,43
3049.28,31
3048.31,23
3047.35,25
3046.38,33
3045.42,35
3044.46,33
3043.49,33
3042.53,35
3041.56,43
3040.60,48
3039.63,41
3038.67,35
3037.71,32
3036.74,33
3035.78,33
3034.81,31
3033.85,28
3032.88,26
3031.92,26
3030.96,34
3029.99,39
3029.03,34
3028.06,30
3027.10,30
3026.13,34
3025.17,39
3024.21,40
3023.24,37
3022.28,32
3021.31,26
3020.35,15
3019.39,19
3018.42,35
3017.46,42
3016.49,43
3015.53,43
3014.56,42
3013.60,45
3012.64,50
3011.67,48
3010.71,44
3009.74,42
3008.78,40
3007.81,42
3006.85,47
3005.89,53
3004.92,57
3003.96,56
3002.99,52
3002.03,51
3001.06,54
3000.10,61
2999.14,68
2998.17,70
2997.21,65
2996.24,56
2995.28,54
2994.32,60
2993.35,73
2992.39,86
2991.42,84
2990.46,79
2989.49,88
2988.53,106
2987.57,112
2986.60,104
2985.64,100
2984.67,107
2983.71,114
2982.74,123
2981.78,131
2980.82,138
2979.85,149
2978.89,163
2977.92,175
2976.96,186
2975.99,202
2975.03,219
2974.07,231
2973.10,239
2972.14,249
2971.17,260
2970.21,277
2969.25,298
2968.28,315
2967.32,331
2966.35,352
2965.39,369
2964.42,382
2963.46,394
2962.50,401
2961.53,411
2960.57,425
2959.60,434
2958.64,434
2957.67,435
2956.71,440
2955.75,448
2954.78,452
2953.82,450
2952.85,450
2951.89,458
2950.92,471
2949.96,485
2949.00,495
2948.03,504
2947.07,517
2946.10,528
2945.14,535
2944.17,553
2943.21,588
2942.25,630
2941.28,670
2940.32,706
2939.35,739
2938.39,775
2937.43,812
2936.46,838
2935.50,852
2934.53,874
2933.57,904
2932.60,928
2931.64,940
2930.68,943
2929.71,941
2928.75,947
2927.78,961
2926.82,973
2925.85,974
2924.89,967
2923.93,959
2922.96,955
2922.00,956
2921.03,960
2920.07,963
2919.10,963
2918.14,965
2917.18,971
2916.21,972
2915.25,959
2914.28,943
2913.32,954
2912.36,977
2911.39,983
2910.43,981
2909.46,987
2908.50,1000
2907.53,1014
2906.57,1025
2905.61,1037
2904.64,1048
2903.68,1055
2902.71,1068
2901.75,1082
2900.78,1088
2899.82,1089
2898.86,1090
2897.89,1096
2896.93,1102
2895.96,1097
2895.00,1085
2894.03,1084
2893.07,1086
2892.11,1077
2891.14,1070
2890.18,1071
2889.21,1068
2888.25,1057
2887.29,1048
2886.32,1047
2885.36,1050
2884.39,1043
2883.43,1026
2882.46,1019
2881.50,1020
2880.54,1017
2879.57,1024
2878.61,1046
2877.64,1055
2876.68,1053
2875.71,1055
2874.75,1063
2873.79,1074
2872.82,1083
2871.86,1082
2870.89,1068
2869.93,1052
2868.96,1045
2868.00,1050
2867.04,1068
2866.07,1082
2865.11,1081
2864.14,1080
2863.18,1091
2862.22,1102
2861.25,1104
2860.29,1110
2859.32,1133
2858.36,1162
2857.39,1185
2856.43,1199
2855.47,1209
2854.50,1217
2853.54,1218
2852.57,1206
2851.61,1183
2850.64,1147
2849.68,1103
2848.72,1048
2847.75,972
2846.79,890
2845.82,817
2844.86,747
2843.89,675
2842.93,608
2841.97,551
2841.00,491
2840.04,428
2839.07,372
2838.11,327
2837.15,283
2836.18,241
2835.22,210
2834.25,189
2833.29,170
2832.32,151
2831.36,136
2830.40,119
2829.43,103
2828.47,91
2827.50,85
2826.54,85
2825.57,79
2824.61,60
2823.65,45
2822.68,46
2821.72,55
2820.75,62
2819.79,62
2818.82,56
2817.86,42
2816.90,27
2815.93,19
2814.97,23
2814.00,29
2813.04,25
2812.08,16
2811.11,16
2810.15,20
2809.18,20
2808.22,22
2807.25,22
2806.29,15
2805.33,4
2804.36,1
2803.40,8
2802.43,9
2801.47,-1
2800.50,-6
2799.54,1
2798.58,11
2797.61,18
2796.65,19
2795.68,13
2794.72,7
2793.75,-0
2792.79,-3
2791.83,-0
2790.86,3
2789.90,6
2788.93,8
2787.97,6
2787.00,11
2786.04,28
2785.08,40
2784.11,31
2783.15,19
2782.18,16
2781.22,13
2780.26,8
2779.29,4
2778.33,1
2777.36,0
2776.40,3
2775.43,1
2774.47,-7
2773.51,-4
2772.54,11
2771.58,18
2770.61,6
2769.65,-12
2768.68,-21
2767.72,-20
2766.76,-13
2765.79,-8
2764.83,-9
2763.86,-8
2762.90,-5
2761.93,-3
2760.97,-6
2760.01,-8
2759.04,-3
2758.08,2
2757.11,-7
2756.15,-19
2755.19,-24
2754.22,-25
2753.26,-30
2752.29,-32
2751.33,-23
2750.36,-9
2749.40,3
2748.44,8
2747.47,0
2746.51,-16
2745.54,-27
2744.58,-30
2743.61,-25
2742.65,-14
2741.69,-6
2740.72,-2
2739.76,0
2738.79,0
2737.83,-4
2736.86,-10
2735.90,-11
2734.94,-8
2733.97,-1
2733.01,5
2732.04,4
2731.08,-2
2730.12,-4
2729.15,0
2728.19,11
2727.22,25
2726.26,34
2725.29,35
2724.33,28
2723.37,21
2722.40,23
2721.44,32
2720.47,29
2719.51,20
2718.54,22
2717.58,31
2716.62,41
2715.65,46
2714.69,45
2713.72,40
2712.76,30
2711.79,18
2710.83,15
2709.87,24
2708.90,31
2707.94,27
2706.97,20
2706.01,14
2705.05,6
2704.08,3
2703.12,10
2702.15,19
2701.19,15
2700.22,-3
2699.26,-14
2698.30,-7
2697.33,4
2696.37,10
2695.40,10
2694.44,2
2693.47,-5
2692.51,-5
2691.55,-3
2690.58,-1
2689.62,2
2688.65,4
2687.69,3
2686.72,-1
2685.76,0
2684.80,1
2683.83,1
2682.87,5
2681.90,6
2680.94,6
2679.98,7
2679.01,6
2678.05,7
2677.08,16
2676.12,24
2675.15,17
2674.19,3
2673.23,3
2672.26,9
2671.30,2
2670.33,-7
2669.37,-11
2668.40,-13
2667.44,-11
2666.48,-5
2665.51,0
2664.55,1
2663.58,-2
2662.62,-7
2661.65,-7
2660.69,1
2659.73,3
2658.76,3
2657.80,10
2656.83,16
2655.87,20
2654.91,19
2653.94,12
2652.98,4
2652.01,4
2651.05,10
2650.08,17
2649.12,17
2648.16,11
2647.19,1
2646.23,-7
2645.26,-9
2644.30,-4
2643.33,11
2642.37,26
2641.41,33
2640.44,32
2639.48,24
2638.51,12
2637.55,3
2636.58,-1
2635.62,-4
2634.66,-5
2633.69,0
2632.73,2
2631.76,-7
2630.80,-10
2629.83,4
2628.87,25
2627.91,38
2626.94,37
2625.98,26
2625.01,13
2624.05,7
2623.09,8
2622.12,3
2621.16,-9
2620.19,-4
2619.23,10
2618.26,12
2617.30,8
2616.34,12
2615.37,19
2614.41,19
2613.44,12
2612.48,9
2611.51,11
2610.55,13
2609.59,15
2608.62,15
2607.66,10
2606.69,3
2605.73,-1
2604.76,-2
2603.80,1
2602.84,4
2601.87,3
2600.91,2
2599.94,2
2598.98,1
2598.02,-5
2597.05,-8
2596.09,1
2595.12,12
2594.16,11
2593.19,7
2592.23,3
2591.27,1
2590.30,0
2589.34,-0
2588.37,-0
2587.41,1
2586.44,5
2585.48,8
2584.52,7
2583.55,-1
2582.59,-11
2581.62,-16
2580.66,-13
2579.69,-7
2578.73,2
2577.77,8
2576.80,2
2575.84,-7
2574.87,-12
2573.91,-12
2572.95,-6
2571.98,-2
2571.02,-8
2570.05,-13
2569.09,-11
2568.12,-1
2567.16,11
2566.20,14
2565.23,9
2564.27,2
2563.30,-3
2562.34,-5
2561.37,-1
2560.41,-1
2559.45,-6
2558.48,-11
2557.52,-12
2556.55,-8
2555.59,-1
2554.62,-1
2553.66,-7
2552.70,-12
2551.73,-13
2550.77,-12
2549.80,-11
2548.84,-20
2547.88,-32
2546.91,-30
2545.95,-18
2544.98,-11
2544.02,0
2543.05,7
2542.09,4
2541.13,-1
2540.16,-7
2539.20,-14
2538.23,-19
2537.27,-17
2536.30,-15
2535.34,-16
2534.38,-14
2533.41,-10
2532.45,-10
2531.48,-11
2530.52,-16
2529.55,-19
2528.59,-17
2527.63,-10
2526.66,-8
2525.70,-10
2524.73,-13
2523.77,-18
2522.81,-24
2521.84,-26
2520.88,-20
2519.91,-9
2518.95,2
2517.98,3
2517.02,-4
2516.06,-9
2515.09,-12
2514.13,-11
2513.16,-5
2512.20,1
2511.23,-6
2510.27,-19
2509.31,-25
2508.34,-16
2507.38,0
2506.41,10
2505.45,10
2504.48,4
2503.52,2
2502.56,9
2501.59,16
2500.63,14
2499.66,6
2498.70,6
2497.74,12
2496.77,19
2495.81,22
2494.84,21
2493.88,14
2492.91,11
2491.95,15
2490.99,14
2490.02,10
2489.06,12
2488.09,14
2487.13,8
2486.16,-2
2485.20,-7
2484.24,-1
2483.27,11
2482.31,17
2481.34,18
2480.38,17
2479.41,11
2478.45,-1
2477.49,-9
2476.52,-8
2475.56,-6
2474.59,-8
2473.63,-8
2472.66,-5
2471.70,-3
2470.74,-1
2469.77,5
2468.81,4
2467.84,-1
2466.88,-1
2465.92,0
2464.95,1
2463.99,6
2463.02,10
2462.06,9
2461.09,4
2460.13,-3
2459.17,-8
2458.20,-5
2457.24,-5
2456.27,-18
2455.31,-28
2454.34,-22
2453.38,-10
2452.42,-1
2451.45,0
2450.49,2
2449.52,4
2448.56,3
2447.59,-3
2446.63,-6
2445.67,-7
2444.70,-8
2443.74,-3
2442.77,15
2441.81,37
2440.85,40
2439.88,29
2438.92,20
2437.95,15
2436.99,11
2436.02,2
2435.06,-5
2434.10,1
2433.13,12
2432.17,19
2431.20,25
2430.24,25
2429.27,20
2428.31,16
2427.35,10
2426.38,7
2425.42,5
2424.45,2
2423.49,-1
2422.52,1
2421.56,7
2420.60,16
2419.63,25
2418.67,25
2417.70,15
2416.74,7
2415.78,-2
2414.81,-12
2413.85,-18
2412.88,-22
2411.92,-24
2410.95,-16
2409.99,-3
2409.03,2
2408.06,-2
2407.10,-11
2406.13,-20
2405.17,-23
2404.20,-17
2403.24,-10
2402.28,-2
2401.31,1
2400.35,3
2399.38,13
2398.42,18
2397.45,15
2396.49,11
2395.53,12
2394.56,8
2393.60,-4
2392.63,-14
2391.67,-18
2390.71,-16
2389.74,-7
2388.78,6
2387.81,13
2386.85,12
2385.88,11
2384.92,10
2383.96,5
2382.99,-4
2382.03,-9
2381.06,-1
2380.10,13
2379.13,21
2378.17,27
2377.21,27
2376.24,27
2375.28,32
2374.31,28
2373.35,11
2372.38,-4
2371.42,-4
2370.46,5
2369.49,11
2368.53,12
2367.56,15
2366.60,22
2365.64,29
2364.67,31
2363.71,15
2362.74,-9
2361.78,-15
2360.81,-5
2359.85,4
2358.89,4
2357.92,-5
2356.96,-13
2355.99,-14
2355.03,-9
2354.06,0
2353.10,7
2352.14,5
2351.17,-0
2350.21,-3
2349.24,-3
2348.28,0
2347.31,8
2346.35,14
2345.39,8
2344.42,-6
2343.46,-12
2342.49,-8
2341.53,-3
2340.57,-3
2339.60,-0
2338.64,7
2337.67,12
2336.71,7
2335.74,-4
2334.78,-7
2333.82,-6
2332.85,-12
2331.89,-18
2330.92,-19
2329.96,-12
2328.99,-0
2328.03,13
2327.07,16
2326.10,13
2325.14,14
2324.17,16
2323.21,14
2322.24,2
2321.28,-11
2320.32,-15
2319.35,-14
2318.39,-14
2317.42,-13
2316.46,-6
2315.49,4
2314.53,8
2313.57,10
2312.60,10
2311.64,6
2310.67,2
2309.71,1
2308.75,2
2307.78,2
2306.82,-1
2305.85,-10
2304.89,-18
2303.92,-16
2302.96,-7
2302.00,-2
2301.03,-4
2300.07,-10
2299.10,-12
2298.14,-9
2297.17,-6
2296.21,-3
2295.25,-2
2294.28,-3
2293.32,0
2292.35,10
2291.39,17
2290.42,17
2289.46,11
2288.50,2
2287.53,-4
2286.57,-2
2285.60,-5
2284.64,-11
2283.68,-5
2282.71,4
2281.75,9
2280.78,14
2279.82,16
2278.85,13
2277.89,10
2276.93,13
2275.96,17
2275.00,18
2274.03,14
2273.07,10
2272.10,7
2271.14,13
2270.18,21
2269.21,16
2268.25,4
2267.28,-2
2266.32,-1
2265.35,4
2264.39,13
2263.43,19
2262.46,19
2261.50,21
2260.53,29
2259.57,36
2258.61,28
2257.64,7
2256.68,-8
2255.71,-12
2254.75,-2
2253.78,18
2252.82,30
2251.86,27
2250.89,20
2249.93,13
2248.96,16
2248.00,27
2247.03,23
2246.07,0
2245.11,-11
2244.14,-7
2243.18,-2
2242.21,-3
2241.25,-7
2240.28,-6
2239.32,-1
2238.36,2
2237.39,1
2236.43,1
2235.46,-2
2234.50,-14
2233.54,-24
2232.57,-23
2231.61,-14
2230.64,-5
2229.68,-4
2228.71,-14
2227.75,-25
2226.79,-28
2225.82,-25
2224.86,-21
2223.89,-15
2222.93,-9
2221.96,-7
2221.00,-7
2220.04,-11
2219.07,-26
2218.11,-40
2217.14,-37
2216.18,-25
2215.21,-14
2214.25,-2
2213.29,5
2212.32,-3
2211.36,-16
2210.39,-24
2209.43,-24
2208.47,-23
2207.50,-24
2206.54,-24
2205.57,-21
2204.61,-8
2203.64,5
2202.68,5
2201.72,2
2200.75,0
2199.79,-2
2198.82,-6
2197.86,-10
2196.89,-13
2195.93,-17
2194.97,-23
2194.00,-29
2193.04,-30
2192.07,-24
2191.11,-14
2190.14,-4
2189.18,0
2188.22,-2
2187.25,-6
2186.29,-8
2185.32,-7
2184.36,-4
2183.40,-4
2182.43,-13
2181.47,-27
2180.50,-38
2179.54,-39
2178.57,-31
2177.61,-16
2176.65,-2
2175.68,7
2174.72,6
2173.75,-4
2172.79,-14
2171.82,-18
2170.86,-17
2169.90,-14
2168.93,-10
2167.97,-8
2167.00,-9
2166.04,-8
2165.07,-2
2164.11,3
2163.15,4
2162.18,2
2161.22,-3
2160.25,-7
2159.29,-3
2158.32,5
2157.36,4
2156.40,-5
2155.43,-14
2154.47,-18
2153.50,-16
2152.54,-6
2151.58,3
2150.61,6
2149.65,6
2148.68,9
2147.72,10
2146.75,5
2145.79,0
2144.83,3
2143.86,7
2142.90,4
2141.93,-4
2140.97,-13
2140.00,-18
2139.04,-20
2138.08,-21
2137.11,-18
2136.15,-8
2135.18,-2
2134.22,-6
2133.25,-7
2132.29,-2
2131.33,3
2130.36,4
2129.40,-1
2128.43,-11
2127.47,-19
2126.51,-22
2125.54,-20
2124.58,-15
2123.61,-7
2122.65,-2
2121.68,-7
2120.72,-12
2119.76,-11
2118.79,-7
2117.83,-1
2116.86,2
2115.90,-4
2114.93,-15
2113.97,-21
2113.01,-18
2112.04,-9
2111.08,-2
2110.11,1
2109.15,-2
2108.18,-10
2107.22,-15
2106.26,-17
2105.29,-17
2104.33,-10
2103.36,-3
2102.40,1
2101.44,3
2100.47,0
2099.51,-5
2098.54,-10
2097.58,-16
2096.61,-22
2095.65,-25
2094.69,-27
2093.72,-24
2092.76,-27
2091.79,-31
2090.83,-22
2089.86,-7
2088.90,-2
2087.94,-10
2086.97,-19
2086.01,-19
2085.04,-12
2084.08,-6
2083.11,-3
2082.15,-5
2081.19,-10
2080.22,-13
2079.26,-10
2078.29,-3
2077.33,5
2076.37,6
2075.40,-4
2074.44,-14
2073.47,-9
2072.51,1
2071.54,-4
2070.58,-21
2069.62,-34
2068.65,-35
2067.69,-27
2066.72,-14
2065.76,-4
2064.79,-2
2063.83,-2
2062.87,-1
2061.90,-2
2060.94,-5
2059.97,-7
2059.01,-7
2058.04,-6
2057.08,-6
2056.12,-10
2055.15,-15
2054.19,-14
2053.22,-8
2052.26,-5
2051.30,-8
2050.33,-14
2049.37,-20
2048.40,-21
2047.44,-18
2046.47,-13
2045.51,-8
2044.55,-4
2043.58,-1
2042.62,3
2041.65,6
2040.69,8
2039.72,5
2038.76,-6
2037.80,-7
2036.83,-1
2035.87,-6
2034.90,-11
2033.94,-8
2032.97,-3
2032.01,2
2031.05,3
2030.08,1
2029.12,0
2028.15,-1
2027.19,-2
2026.23,1
2025.26,4
2024.30,3
2023.33,2
2022.37,-0
2021.40,-4
2020.44,-8
2019.48,-15
2018.51,-25
2017.55,-30
2016.58,-25
2015.62,-15
2014.65,-11
2013.69,-11
2012.73,-7
2011.76,-0
2010.80,9
2009.83,15
2008.87,16
2007.90,19
2006.94,20
2005.98,10
2005.01,-6
2004.05,-20
2003.08,-29
2002.12,-27
2001.15,-18
2000.19,-10
1999.23,-13
1998.26,-23
1997.30,-31
1996.33,-35
1995.37,-32
1994.41,-23
1993.44,-16
1992.48,-10
1991.51,-9
1990.55,-13
1989.58,-15
1988.62,-11
1987.66,-6
1986.69,-6
1985.73,-10
1984.76,-12
1983.80,-7
1982.83,1
1981.87,10
1980.91,13
1979.94,3
1978.98,-16
1978.01,-31
1977.05,-31
1976.08,-21
1975.12,-10
1974.16,-6
1973.19,-8
1972.23,-13
1971.26,-14
1970.30,-3
1969.34,14
1968.37,26
1967.41,27
1966.44,24
1965.48,18
1964.51,13
1963.55,14
1962.59,17
1961.62,16
1960.66,7
1959.69,-3
1958.73,-5
1957.76,1
1956.80,5
1955.84,10
1954.87,18
1953.91,21
1952.94,18
1951.98,12
1951.01,11
1950.05,12
1949.09,15
1948.12,17
1947.16,15
1946.19,8
1945.23,-2
1944.27,-8
1943.30,-6
1942.34,4
1941.37,19
1940.41,26
1939.44,21
1938.48,12
1937.52,7
1936.55,4
1935.59,0
1934.62,-2
1933.66,-4
1932.69,-7
1931.73,-2
1930.77,9
1929.80,13
1928.84,4
1927.87,-6
1926.91,-14
1925.94,-21
1924.98,-14
1924.02,-1
1923.05,6
1922.09,9
1921.12,9
1920.16,7
1919.20,5
1918.23,8
1917.27,13
1916.30,16
1915.34,11
1914.37,3
1913.41,-4
1912.45,-10
1911.48,-13
1910.52,-12
1909.55,-13
1908.59,-16
1907.62,-19
1906.66,-24
1905.70,-27
1904.73,-25
1903.77,-26
1902.80,-29
1901.84,-28
1900.87,-19
1899.91,-16
1898.95,-27
1897.98,-34
1897.02,-22
1896.05,-2
1895.09,7
1894.13,6
1893.16,-1
1892.20,-9
1891.23,-14
1890.27,-17
1889.30,-20
1888.34,-27
1887.38,-30
1886.41,-21
1885.45,-7
1884.48,2
1883.52,-2
1882.55,-14
1881.59,-24
1880.63,-24
1879.66,-17
1878.70,-10
1877.73,-9
1876.77,-15
1875.80,-22
1874.84,-22
1873.88,-13
1872.91,-4
1871.95,-0
1870.98,-4
1870.02,-15
1869.06,-20
1868.09,-11
1867.13,2
1866.16,11
1865.20,12
1864.23,4
1863.27,-1
1862.31,0
1861.34,-2
1860.38,-16
1859.41,-34
1858.45,-38
1857.48,-28
1856.52,-13
1855.56,2
1854.59,13
1853.63,18
1852.66,19
1851.70,13
1850.73,-3
1849.77,-12
1848.81,-9
1847.84,-6
1846.88,-6
1845.91,-5
1844.95,-5
1843.98,-2
1843.02,4
1842.06,12
1841.09,19
1840.13,13
1839.16,-8
1838.20,-31
1837.24,-35
1836.27,-20
1835.31,-6
1834.34,-3
1833.38,-9
1832.41,-15
1831.45,-20
1830.49,-25
1829.52,-27
1828.56,-22
1827.59,-13
1826.63,-5
1825.66,-1
1824.70,1
1823.74,6
1822.77,6
1821.81,-1
1820.84,-13
1819.88,-22
1818.91,-18
1817.95,-10
1816.99,-9
1816.02,-16
1815.06,-23
1814.09,-27
1813.13,-26
1812.17,-21
1811.20,-14
1810.24,-8
1809.27,-6
1808.31,-10
1807.34,-13
1806.38,-14
1805.42,-19
1804.45,-24
1803.49,-26
1802.52,-25
1801.56,-21
1800.59,-20
1799.63,-25
1798.67,-27
1797.70,-18
1796.74,-5
1795.77,0
1794.81,-6
1793.84,-14
1792.88,-20
1791.92,-18
1790.95,-4
1789.99,5
1789.02,-5
1788.06,-28
1787.10,-40
1786.13,-37
1785.17,-25
1784.20,-7
1783.24,13
1782.27,20
1781.31,12
1780.35,6
1779.38,5
1778.42,0
1777.45,-2
1776.49,1
1775.52,0
1774.56,-2
1773.60,-4
1772.63,-6
1771.67,-8
1770.70,-8
1769.74,0
1768.77,10
1767.81,15
1766.85,13
1765.88,7
1764.92,-4
1763.95,-12
1762.99,-2
1762.03,18
1761.06,24
1760.10,22
1759.13,15
1758.17,1
1757.20,-14
1756.24,-18
1755.28,-11
1754.31,-4
1753.35,-1
1752.38,2
1751.42,-1
1750.45,-8
1749.49,-12
1748.53,-7
1747.56,-0
1746.60,5
1745.63,2
1744.67,-8
1743.70,-16
1742.74,-18
1741.78,-18
1740.81,-20
1739.85,-24
1738.88,-25
1737.92,-27
1736.96,-32
1735.99,-36
1735.03,-32
1734.06,-21
1733.10,-12
1732.13,-11
1731.17,-17
1730.21,-20
1729.24,-13
1728.28,1
1727.31,14
1726.35,15
1725.38,-3
1724.42,-27
1723.46,-41
1722.49,-43
1721.53,-40
1720.56,-32
1719.60,-20
1718.63,-14
1717.67,-12
1716.71,-8
1715.74,-5
1714.78,-5
1713.81,-6
1712.85,-5
1711.89,-5
1710.92,-8
1709.96,-15
1708.99,-21
1708.03,-24
1707.06,-23
1706.10,-14
1705.14,0
1704.17,4
1703.21,-5
1702.24,-12
1701.28,-11
1700.31,-7
1699.35,-5
1698.39,-5
1697.42,-6
