Created As Omnic File,PLAS 252
Raman Shift / cm-1,INT
3418.58,-34
3417.61,-17
3416.65,-10
3415.68,-9
3414.72,-0
3413.76,9
3412.79,5
3411.83,-6
3410.86,-13
3409.90,-15
3408.94,-7
3407.97,9
3407.01,18
3406.04,10
3405.08,2
3404.11,14
3403.15,37
3402.19,52
3401.22,49
3400.26,26
3399.29,12
3398.33,8
3397.36,3
3396.40,-2
3395.44,0
3394.47,11
3393.51,18
3392.54,21
3391.58,32
3390.61,48
3389.65,50
3388.69,31
3387.72,14
3386.76,14
3385.79,32
3384.83,46
3383.87,36
3382.90,30
3381.94,39
3380.97,38
3380.01,20
3379.04,0
3378.08,-3
3377.12,10
3376.15,34
3375.19,49
3374.22,53
3373.26,53
3372.29,43
3371.33,31
3370.37,15
3369.40,-3
3368.44,-7
3367.47,5
3366.51,5
3365.54,-8
3364.58,2
3363.62,17
3362.65,15
3361.69,5
3360.72,-1
3359.76,1
3358.80,16
3357.83,36
3356.87,47
3355.90,45
3354.94,25
3353.97,11
3353.01,5
3352.05,-5
3351.08,-8
3350.12,6
3349.15,26
3348.19,40
3347.22,46
3346.26,35
3345.30,25
3344.33,40
3343.37,40
3342.40,19
3341.44,11
3340.47,24
3339.51,38
3338.55,34
3337.58,24
3336.62,18
3335.65,13
3334.69,11
3333.73,11
3332.76,13
3331.80,22
3330.83,26
3329.87,13
3328.90,-15
3327.94,-33
3326.98,-30
3326.01,-18
3325.05,4
3324.08,27
3323.12,19
3322.15,-9
3321.19,3
3320.23,37
3319.26,39
3318.30,23
3317.33,17
3316.37,16
3315.40,16
3314.44,21
3313.48,17
3312.51,9
3311.55,5
3310.58,3
3309.62,12
3308.66,29
3307.69,39
3306.73,37
3305.76,28
3304.80,19
3303.83,14
3302.87,13
3301.91,14
3300.94,20
3299.98,32
3299.01,34
3298.05,33
3297.08,36
3296.12,31
3295.16,24
3294.19,42
3293.23,73
3292.26,86
3291.30,63
3290.33,29
3289.37,16
3288.41,19
3287.44,25
3286.48,11
3285.51,-7
3284.55,0
3283.59,25
3282.62,44
3281.66,53
3280.69,47
3279.73,40
3278.76,40
3277.80,31
3276.84,11
3275.87,-5
3274.91,-4
3273.94,4
3272.98,7
3272.01,-0
3271.05,-8
3270.09,-1
3269.12,10
3268.16,5
3267.19,-5
3266.23,0
3265.26,14
3264.30,13
3263.34,7
3262.37,9
3261.41,18
3260.44,27
3259.48,33
3258.51,28
3257.55,21
3256.59,13
3255.62,6
3254.66,4
3253.69,6
3252.73,8
3251.77,7
3250.80,2
3249.84,-1
3248.87,0
3247.91,0
3246.94,2
3245.98,5
3245.02,4
3244.05,11
3243.09,19
3242.12,21
3241.16,14
3240.19,3
3239.23,6
3238.27,21
3237.30,33
3236.34,30
3235.37,19
3234.41,12
3233.44,20
3232.48,36
3231.52,38
3230.55,28
3229.59,20
3228.62,10
3227.66,4
3226.70,3
3225.73,4
3224.77,15
3223.80,29
3222.84,26
3221.87,7
3220.91,2
3219.95,22
3218.98,32
3218.02,22
3217.05,18
3216.09,31
3215.12,44
3214.16,49
3213.20,51
3212.23,48
3211.27,43
3210.30,35
3209.34,25
3208.37,21
3207.41,24
3206.45,31
3205.48,41
3204.52,44
3203.55,32
3202.59,30
3201.63,45
3200.66,57
3199.70,57
3198.73,50
3197.77,42
3196.80,32
3195.84,28
3194.88,33
3193.91,37
3192.95,34
3191.98,26
3191.02,17
3190.05,15
3189.09,22
3188.13,35
3187.16,51
3186.20,62
3185.23,56
3184.27,39
3183.30,36
3182.34,35
3181.38,34
3180.41,38
3179.45,40
3178.48,33
3177.52,21
3176.56,24
3175.59,33
3174.63,22
3173.66,0
3172.70,-11
3171.73,2
3170.77,31
3169.81,51
3168.84,54
3167.88,42
3166.91,26
3165.95,14
3164.98,-5
3164.02,-22
3163.06,-20
3162.09,-1
3161.13,21
3160.16,33
3159.20,24
3158.23,-0
3157.27,-9
3156.31,5
3155.34,33
3154.38,62
3153.41,70
3152.45,43
3151.49,12
3150.52,5
3149.56,14
3148.59,22
3147.63,29
3146.66,32
3145.70,37
3144.74,37
3143.77,29
3142.81,34
3141.84,43
3140.88,42
3139.91,32
3138.95,18
3137.99,13
3137.02,24
3136.06,31
3135.09,30
3134.13,24
3133.16,17
3132.20,19
3131.24,20
3130.27,9
3129.31,-3
3128.34,1
3127.38,15
3126.42,10
3125.45,-4
3124.49,9
3123.52,30
3122.56,35
3121.59,23
3120.63,14
3119.67,20
3118.70,21
3117.74,11
3116.77,-1
3115.81,-9
3114.84,-15
3113.88,-15
3112.92,-9
3111.95,8
3110.99,34
3110.02,48
3109.06,37
3108.09,19
3107.13,-2
3106.17,-21
3105.20,-22
3104.24,-15
3103.27,-15
3102.31,-2
3101.34,18
3100.38,28
3099.42,35
3098.45,28
3097.49,13
3096.52,8
3095.56,8
3094.60,7
3093.63,-0
3092.67,-13
3091.70,-21
3090.74,-21
3089.77,-14
3088.81,-1
3087.85,5
3086.88,2
3085.92,-5
3084.95,-13
3083.99,-8
3083.02,8
3082.06,15
3081.10,2
3080.13,-10
3079.17,-9
3078.20,-13
3077.24,-25
3076.27,-23
3075.31,-10
3074.35,6
3073.38,16
3072.42,6
3071.45,-1
3070.49,11
3069.53,29
3068.56,32
3067.60,16
3066.63,12
3065.67,23
3064.70,21
3063.74,9
3062.78,12
3061.81,18
3060.85,8
3059.88,-5
3058.92,-7
3057.95,3
3056.99,26
3056.03,40
3055.06,25
3054.10,17
3053.13,25
3052.17,34
3051.20,27
3050.24,5
3049.28,-16
3048.31,-24
3047.35,-16
3046.38,3
3045.42,12
3044.46,6
3043.49,0
3042.53,-7
3041.56,-7
3040.60,8
3039.63,23
3038.67,30
3037.71,34
3036.74,36
3035.78,30
3034.81,15
3033.85,1
3032.88,5
3031.92,34
3030.96,53
3029.99,37
3029.03,27
3028.06,29
3027.10,36
3026.13,48
3025.17,54
3024.21,49
3023.24,41
3022.28,36
3021.31,41
3020.35,36
3019.39,14
3018.42,20
3017.46,62
3016.49,100
3015.53,116
3014.56,112
3013.60,102
3012.64,99
3011.67,104
3010.71,106
3009.74,99
3008.78,88
3007.81,79
3006.85,87
3005.89,114
3004.92,138
3003.96,145
3002.99,146
3002.03,154
3001.06,157
3000.10,150
2999.14,154
2998.17,171
2997.21,178
2996.24,179
2995.28,191
2994.32,218
2993.35,246
2992.39,259
2991.42,268
2990.46,290
2989.49,317
2988.53,337
2987.57,358
2986.60,372
2985.64,381
2984.67,405
2983.71,440
2982.74,486
2981.78,536
2980.82,590
2979.85,657
2978.89,735
2977.92,823
2976.96,919
2975.99,1020
2975.03,1133
2974.07,1277
2973.10,1437
2972.14,1596
2971.17,1764
2970.21,1957
2969.25,2174
2968.28,2397
2967.32,2621
2966.35,2830
2965.39,3009
2964.42,3164
2963.46,3316
2962.50,3479
2961.53,3635
2960.57,3748
2959.60,3804
2958.64,3794
2957.67,3736
2956.71,3639
2955.75,3558
2954.78,3522
2953.82,3509
2952.85,3535
2951.89,3563
2950.92,3542
2949.96,3459
2949.00,3287
2948.03,3054
2947.07,2770
2946.10,2479
2945.14,2182
2944.17,1929
2943.21,1744
2942.25,1616
2941.28,1529
2940.32,1468
2939.35,1433
2938.39,1428
2937.43,1452
2936.46,1502
2935.50,1573
2934.53,1672
2933.57,1803
2932.60,1941
2931.64,2077
2930.68,2214
2929.71,2360
2928.75,2515
2927.78,2678
2926.82,2816
2925.85,2911
2924.89,2977
2923.93,3023
2922.96,3031
2922.00,3016
2921.03,2995
2920.07,2962
2919.10,2925
2918.14,2900
2917.18,2895
2916.21,2889
2915.25,2857
2914.28,2824
2913.32,2862
2912.36,2955
2911.39,3082
2910.43,3242
2909.46,3451
2908.50,3701
2907.53,3966
2906.57,4206
2905.61,4371
2904.64,4468
2903.68,4493
2902.71,4481
2901.75,4437
2900.78,4341
2899.82,4240
2898.86,4145
2897.89,4084
2896.93,4055
2895.96,4044
2895.00,4052
2894.03,4111
2893.07,4224
2892.11,4372
2891.14,4567
2890.18,4795
2889.21,5028
2888.25,5256
2887.29,5487
2886.32,5723
2885.36,5948
2884.39,6119
2883.43,6203
2882.46,6213
2881.50,6180
2880.54,6093
2879.57,5962
2878.61,5769
2877.64,5490
2876.68,5168
2875.71,4877
2874.75,4646
2873.79,4463
2872.82,4314
2871.86,4206
2870.89,4166
2869.93,4169
2868.96,4199
2868.00,4257
2867.04,4305
2866.07,4293
2865.11,4169
2864.14,3956
2863.18,3667
2862.22,3313
2861.25,2895
2860.29,2485
2859.32,2153
2858.36,1887
2857.39,1686
2856.43,1528
2855.47,1419
2854.50,1353
2853.54,1302
2852.57,1267
2851.61,1248
2850.64,1252
2849.68,1292
2848.72,1359
2847.75,1435
2846.79,1540
2845.82,1694
2844.86,1875
2843.89,2059
2842.93,2256
2841.97,2471
2841.00,2659
2840.04,2807
2839.07,2868
2838.11,2819
2837.15,2682
2836.18,2477
2835.22,2235
2834.25,1970
2833.29,1694
2832.32,1441
2831.36,1218
2830.40,1024
2829.43,858
2828.47,724
2827.50,616
2826.54,538
2825.57,474
2824.61,415
2823.65,366
2822.68,333
2821.72,324
2820.75,317
2819.79,302
2818.82,279
2817.86,236
2816.90,181
2815.93,147
2814.97,147
2814.00,153
2813.04,130
2812.08,97
2811.11,88
2810.15,92
2809.18,93
2808.22,93
2807.25,83
2806.29,57
2805.33,34
2804.36,19
2803.40,12
2802.43,14
2801.47,29
2800.50,34
2799.54,22
2798.58,12
2797.61,11
2796.65,12
2795.68,22
2794.72,26
2793.75,10
2792.79,0
2791.83,5
2790.86,5
2789.90,2
2788.93,0
2787.97,3
2787.00,15
2786.04,34
2785.08,52
2784.11,65
2783.15,62
2782.18,42
2781.22,18
2780.26,-0
2779.29,-4
2778.33,4
2777.36,15
2776.40,23
2775.43,16
2774.47,6
2773.51,18
2772.54,37
2771.58,46
2770.61,47
2769.65,33
2768.68,14
2767.72,17
2766.76,35
2765.79,39
2764.83,23
2763.86,19
2762.90,52
2761.93,89
2760.97,87
2760.01,78
2759.04,80
2758.08,86
2757.11,102
2756.15,107
2755.19,94
2754.22,91
2753.26,109
2752.29,132
2751.33,140
2750.36,144
2749.40,157
2748.44,163
2747.47,159
2746.51,145
2745.54,119
2744.58,103
2743.61,112
2742.65,132
2741.69,150
2740.72,157
2739.76,160
2738.79,161
2737.83,161
2736.86,162
2735.90,160
2734.94,163
2733.97,190
2733.01,223
2732.04,230
2731.08,226
2730.12,238
2729.15,265
2728.19,297
2727.22,331
2726.26,367
2725.29,395
2724.33,402
2723.37,399
2722.40,411
2721.44,431
2720.47,413
2719.51,380
2718.54,369
2717.58,371
2716.62,369
2715.65,347
2714.69,313
2713.72,279
2712.76,249
2711.79,229
2710.83,211
2709.87,196
2708.90,194
2707.94,186
2706.97,158
2706.01,121
2705.05,82
2704.08,60
2703.12,69
2702.15,89
2701.19,88
2700.22,60
2699.26,28
2698.30,8
2697.33,-0
2696.37,-7
2695.40,-11
2694.44,-15
2693.47,-21
2692.51,-19
2691.55,-15
2690.58,-16
2689.62,-14
2688.65,-3
2687.69,-4
2686.72,-19
2685.76,-19
2684.80,-6
2683.83,-3
2682.87,-18
2681.90,-38
2680.94,-44
2679.98,-33
2679.01,-18
2678.05,-4
2677.08,0
2676.12,-3
2675.15,-10
2674.19,-26
2673.23,-46
2672.26,-64
2671.30,-72
2670.33,-71
2669.37,-71
2668.40,-74
2667.44,-73
2666.48,-63
2665.51,-52
2664.55,-42
2663.58,-31
2662.62,-23
2661.65,-21
2660.69,-17
2659.73,-19
2658.76,-22
2657.80,-1
2656.83,27
2655.87,28
2654.91,8
2653.94,-3
2652.98,9
2652.01,18
2651.05,15
2650.08,22
2649.12,36
2648.16,25
2647.19,-9
2646.23,-22
2645.26,-3
2644.30,10
2643.33,12
2642.37,23
2641.41,34
2640.44,31
2639.48,11
2638.51,-18
2637.55,-33
2636.58,-34
2635.62,-43
2634.66,-57
2633.69,-64
2632.73,-70
2631.76,-68
2630.80,-52
2629.83,-21
2628.87,23
2627.91,63
2626.94,71
2625.98,40
2625.01,-3
2624.05,-21
2623.09,-10
2622.12,-1
2621.16,-3
2620.19,-2
2619.23,4
2618.26,2
2617.30,-3
2616.34,2
2615.37,12
2614.41,13
2613.44,6
2612.48,4
2611.51,9
2610.55,13
2609.59,18
2608.62,21
2607.66,9
2606.69,-0
2605.73,4
2604.76,10
2603.80,17
2602.84,24
2601.87,24
2600.91,17
2599.94,5
2598.98,-7
2598.02,-16
2597.05,-23
2596.09,-18
2595.12,-7
2594.16,-6
2593.19,-7
2592.23,1
2591.27,9
2590.30,7
2589.34,-0
2588.37,-2
2587.41,3
2586.44,9
2585.48,14
2584.52,4
2583.55,-24
2582.59,-51
2581.62,-58
2580.66,-43
2579.69,-22
2578.73,-15
2577.77,-30
2576.80,-54
2575.84,-63
2574.87,-53
2573.91,-29
2572.95,0
2571.98,11
2571.02,-19
2570.05,-63
2569.09,-69
2568.12,-34
2567.16,3
2566.20,10
2565.23,-8
2564.27,-30
2563.30,-43
2562.34,-32
2561.37,-5
2560.41,13
2559.45,10
2558.48,-9
2557.52,-30
2556.55,-36
2555.59,-24
2554.62,-0
2553.66,8
2552.70,-18
2551.73,-54
2550.77,-70
2549.80,-68
2548.84,-62
2547.88,-47
2546.91,-26
2545.95,-9
2544.98,-11
2544.02,-15
2543.05,4
2542.09,28
2541.13,29
2540.16,7
2539.20,-12
2538.23,-3
2537.27,19
2536.30,27
2535.34,22
2534.38,24
2533.41,28
2532.45,26
2531.48,19
2530.52,8
2529.55,0
2528.59,10
2527.63,31
2526.66,43
2525.70,44
2524.73,41
2523.77,31
2522.81,13
2521.84,3
2520.88,-6
2519.91,-12
2518.95,-1
2517.98,-4
2517.02,-13
2516.06,-7
2515.09,14
2514.13,45
2513.16,68
2512.20,57
2511.23,26
2510.27,8
2509.31,1
2508.34,1
2507.38,21
2506.41,44
2505.45,48
2504.48,35
2503.52,29
2502.56,38
2501.59,47
2500.63,41
2499.66,27
2498.70,23
2497.74,33
2496.77,48
2495.81,56
2494.84,45
2493.88,13
2492.91,6
2491.95,22
2490.99,25
2490.02,21
2489.06,34
2488.09,51
2487.13,42
2486.16,12
2485.20,-13
2484.24,-12
2483.27,7
2482.31,22
2481.34,29
2480.38,33
2479.41,28
2478.45,17
2477.49,8
2476.52,-5
2475.56,-18
2474.59,-20
2473.63,-10
2472.66,-5
2471.70,-15
2470.74,-17
2469.77,-5
2468.81,-5
2467.84,-9
2466.88,4
2465.92,20
2464.95,17
2463.99,4
2463.02,1
2462.06,7
2461.09,9
2460.13,4
2459.17,0
2458.20,2
2457.24,-3
2456.27,-26
2455.31,-41
2454.34,-24
2453.38,5
2452.42,27
2451.45,25
2450.49,-1
2449.52,-26
2448.56,-33
2447.59,-27
2446.63,-20
2445.67,-14
2444.70,-9
2443.74,10
2442.77,47
2441.81,75
2440.85,78
2439.88,69
2438.92,51
2437.95,30
2436.99,17
2436.02,9
2435.06,5
2434.10,13
2433.13,27
2432.17,33
2431.20,42
2430.24,60
2429.27,70
2428.31,52
2427.35,19
2426.38,-10
2425.42,-31
2424.45,-38
2423.49,-29
2422.52,-12
2421.56,7
2420.60,33
2419.63,58
2418.67,63
2417.70,52
2416.74,40
2415.78,18
2414.81,-13
2413.85,-37
2412.88,-51
2411.92,-44
2410.95,-12
2409.99,17
2409.03,14
2408.06,-12
2407.10,-46
2406.13,-71
2405.17,-70
2404.20,-41
2403.24,-4
2402.28,12
2401.31,1
2400.35,-14
2399.38,-13
2398.42,-6
2397.45,-1
2396.49,-2
2395.53,-8
2394.56,-21
2393.60,-34
2392.63,-43
2391.67,-56
2390.71,-63
2389.74,-44
2388.78,-12
2387.81,3
2386.85,0
2385.88,-9
2384.92,-18
2383.96,-30
2382.99,-46
2382.03,-60
2381.06,-52
2380.10,-20
2379.13,18
2378.17,45
2377.21,53
2376.24,47
2375.28,37
2374.31,10
2373.35,-33
2372.38,-61
2371.42,-54
2370.46,-27
2369.49,-6
2368.53,0
2367.56,-0
2366.60,2
2365.64,10
2364.67,9
2363.71,-21
2362.74,-60
2361.78,-62
2360.81,-29
2359.85,-6
2358.89,-19
2357.92,-55
2356.96,-88
2355.99,-94
2355.03,-64
2354.06,-22
2353.10,-16
2352.14,-41
2351.17,-44
2350.21,-27
2349.24,-27
2348.28,-27
2347.31,-7
2346.35,12
2345.39,7
2344.42,-13
2343.46,-21
2342.49,-14
2341.53,-9
2340.57,-14
2339.60,-15
2338.64,-9
2337.67,-1
2336.71,0
2335.74,-13
2334.78,-17
2333.82,-18
2332.85,-39
2331.89,-60
2330.92,-49
2329.96,-12
2328.99,23
2328.03,38
2327.07,35
2326.10,28
2325.14,29
2324.17,29
2323.21,28
2322.24,20
2321.28,-1
2320.32,-22
2319.35,-29
2318.39,-22
2317.42,-6
2316.46,14
2315.49,28
2314.53,19
2313.57,-4
2312.60,-11
2311.64,-13
2310.67,-11
2309.71,4
2308.75,10
2307.78,5
2306.82,-1
2305.85,-7
2304.89,-14
2303.92,-16
2302.96,-12
2302.00,-9
2301.03,-21
2300.07,-32
2299.10,-26
2298.14,-20
2297.17,-23
2296.21,-18
2295.25,-17
2294.28,-31
2293.32,-39
2292.35,-19
2291.39,13
2290.42,23
2289.46,5
2288.50,-25
2287.53,-38
2286.57,-27
2285.60,-24
2284.64,-34
2283.68,-27
2282.71,-18
2281.75,-11
2280.78,0
2279.82,8
2278.85,7
2277.89,-3
2276.93,-13
2275.96,-9
2275.00,2
2274.03,2
2273.07,-11
2272.10,-21
2271.14,-4
2270.18,25
2269.21,25
2268.25,6
2267.28,-9
2266.32,-15
2265.35,-4
2264.39,22
2263.43,35
2262.46,24
2261.50,19
2260.53,42
2259.57,71
2258.61,68
2257.64,24
2256.68,-30
2255.71,-59
2254.75,-44
2253.78,6
2252.82,44
2251.86,55
2250.89,55
2249.93,50
2248.96,61
2248.00,86
2247.03,75
2246.07,35
2245.11,18
2244.14,18
2243.18,19
2242.21,15
2241.25,5
2240.28,6
2239.32,22
2238.36,37
2237.39,44
2236.43,43
2235.46,25
2234.50,-8
2233.54,-29
2232.57,-19
2231.61,9
2230.64,38
2229.68,46
2228.71,28
2227.75,13
2226.79,14
2225.82,17
2224.86,17
2223.89,21
2222.93,23
2221.96,14
2221.00,0
2220.04,6
2219.07,19
2218.11,3
2217.14,-24
2216.18,-21
2215.21,13
2214.25,53
2213.29,66
2212.32,42
2211.36,12
2210.39,0
2209.43,3
2208.47,5
2207.50,5
2206.54,3
2205.57,-4
2204.61,-7
2203.64,11
2202.68,36
2201.72,55
2200.75,72
2199.79,80
2198.82,69
2197.86,50
2196.89,33
2195.93,11
2194.97,-23
2194.00,-55
2193.04,-61
2192.07,-38
2191.11,-5
2190.14,22
2189.18,39
2188.22,49
2187.25,51
2186.29,49
2185.32,50
2184.36,50
2183.40,40
2182.43,13
2181.47,-21
2180.50,-45
2179.54,-45
2178.57,-30
2177.61,-11
2176.65,7
2175.68,15
2174.72,8
2173.75,-6
2172.79,-17
2171.82,-24
2170.86,-21
2169.90,-11
2168.93,-1
2167.97,-0
2167.00,-10
2166.04,-21
2165.07,-22
2164.11,-14
2163.15,1
2162.18,9
2161.22,2
2160.25,-13
2159.29,-22
2158.32,-15
2157.36,8
2156.40,24
2155.43,12
2154.47,-16
2153.50,-37
2152.54,-41
2151.58,-36
2150.61,-28
2149.65,-21
2148.68,-6
2147.72,9
2146.75,7
2145.79,3
2144.83,6
2143.86,7
2142.90,-6
2141.93,-30
2140.97,-50
2140.00,-54
2139.04,-51
2138.08,-51
2137.11,-48
2136.15,-41
2135.18,-45
2134.22,-50
2133.25,-35
2132.29,-3
2131.33,27
2130.36,33
2129.40,17
2128.43,-0
2127.47,-3
2126.51,-1
2125.54,-11
2124.58,-21
2123.61,-22
2122.65,-26
2121.68,-28
2120.72,-23
2119.76,-25
2118.79,-23
2117.83,-15
2116.86,-15
2115.90,-27
2114.93,-41
2113.97,-45
2113.01,-30
2112.04,-12
2111.08,-11
2110.11,-17
2109.15,-2
2108.18,15
2107.22,1
2106.26,-22
2105.29,-31
2104.33,-25
2103.36,-12
2102.40,-3
2101.44,7
2100.47,17
2099.51,18
2098.54,6
2097.58,-12
2096.61,-29
2095.65,-44
2094.69,-69
2093.72,-96
2092.76,-85
2091.79,-43
2090.83,-7
2089.86,12
2088.90,7
2087.94,-15
2086.97,-36
2086.01,-40
2085.04,-28
2084.08,-14
2083.11,-5
2082.15,1
2081.19,3
2080.22,-5
2079.26,-16
2078.29,-9
2077.33,13
2076.37,26
2075.40,21
2074.44,7
2073.47,-1
2072.51,-4
2071.54,-10
2070.58,-23
2069.62,-32
2068.65,-26
2067.69,-9
2066.72,8
2065.76,23
2064.79,40
2063.83,54
2062.87,57
2061.90,47
2060.94,27
2059.97,8
2059.01,-5
2058.04,-9
2057.08,-10
2056.12,-12
2055.15,-19
2054.19,-15
2053.22,1
2052.26,4
2051.30,-8
2050.33,-15
2049.37,-15
2048.40,7
2047.44,44
2046.47,65
2045.51,62
2044.55,56
2043.58,60
2042.62,64
2041.65,62
2040.69,65
2039.72,88
2038.76,106
2037.80,85
2036.83,46
2035.87,22
2034.90,19
2033.94,26
2032.97,29
2032.01,38
2031.05,54
2030.08,55
2029.12,31
2028.15,2
2027.19,0
2026.23,27
2025.26,49
2024.30,55
2023.33,52
2022.37,42
2021.40,33
2020.44,32
2019.48,30
2018.51,27
2017.55,26
2016.58,26
2015.62,21
2014.65,13
2013.69,15
2012.73,33
2011.76,67
2010.80,106
2009.83,132
2008.87,139
2007.90,136
2006.94,124
2005.98,96
2005.01,59
2004.05,22
2003.08,-1
2002.12,0
2001.15,21
2000.19,41
1999.23,46
1998.26,34
1997.30,9
1996.33,-14
1995.37,-16
1994.41,-3
1993.44,8
1992.48,16
1991.51,24
1990.55,30
1989.58,29
1988.62,27
1987.66,34
1986.69,47
1985.73,54
1984.76,48
1983.80,44
1982.83,58
1981.87,85
1980.91,96
1979.94,71
1978.98,27
1978.01,-2
1977.05,1
1976.08,28
1975.12,52
1974.16,53
1973.19,32
1972.23,5
1971.26,-7
1970.30,11
1969.34,52
1968.37,78
1967.41,73
1966.44,61
1965.48,57
1964.51,61
1963.55,63
1962.59,60
1961.62,63
1960.66,65
1959.69,45
1958.73,16
1957.76,0
1956.80,-5
1955.84,1
1954.87,30
1953.91,56
1952.94,55
1951.98,42
1951.01,40
1950.05,44
1949.09,48
1948.12,48
1947.16,47
1946.19,45
1945.23,40
1944.27,31
1943.30,28
1942.34,38
1941.37,52
1940.41,62
1939.44,62
1938.48,46
1937.52,20
1936.55,-1
1935.59,-2
1934.62,15
1933.66,33
1932.69,45
1931.73,56
1930.77,58
1929.80,40
1928.84,7
1927.87,-19
1926.91,-18
1925.94,-3
1924.98,8
1924.02,22
1923.05,17
1922.09,-3
1921.12,-5
1920.16,9
1919.20,29
1918.23,54
1917.27,79
1916.30,88
1915.34,71
1914.37,36
1913.41,2
1912.45,-21
1911.48,-26
1910.52,-21
1909.55,-23
1908.59,-28
1907.62,-25
1906.66,-27
1905.70,-42
1904.73,-52
1903.77,-48
1902.80,-36
1901.84,-19
1900.87,-1
1899.91,1
1898.95,-11
1897.98,-14
1897.02,-8
1896.05,0
1895.09,19
1894.13,29
1893.16,20
1892.20,6
1891.23,-5
1890.27,-14
1889.30,-27
1888.34,-43
1887.38,-48
1886.41,-34
1885.45,-9
1884.48,18
1883.52,29
1882.55,8
1881.59,-27
1880.63,-36
1879.66,-18
1878.70,2
1877.73,8
1876.77,-3
1875.80,-17
1874.84,-10
1873.88,23
1872.91,61
1871.95,79
1870.98,62
1870.02,21
1869.06,-13
1868.09,-17
1867.13,8
1866.16,34
1865.20,34
1864.23,13
1863.27,-3
1862.31,-3
1861.34,0
1860.38,-6
1859.41,-14
1858.45,-8
1857.48,12
1856.52,27
1855.56,26
1854.59,33
1853.63,63
1852.66,95
1851.70,96
1850.73,66
1849.77,37
1848.81,29
1847.84,32
1846.88,37
1845.91,43
1844.95,48
1843.98,57
1843.02,73
1842.06,93
1841.09,104
1840.13,82
1839.16,32
1838.20,-10
1837.24,-16
1836.27,9
1835.31,41
1834.34,54
1833.38,50
1832.41,40
1831.45,29
1830.49,14
1829.52,4
1828.56,-2
1827.59,-9
1826.63,-9
1825.66,18
1824.70,57
1823.74,76
1822.77,74
1821.81,59
1820.84,31
1819.88,4
1818.91,0
1817.95,14
1816.99,24
1816.02,22
1815.06,15
1814.09,12
1813.13,18
1812.17,28
1811.20,40
1810.24,45
1809.27,40
1808.31,31
1807.34,30
1806.38,29
1805.42,19
1804.45,12
1803.49,14
1802.52,10
1801.56,-1
1800.59,-14
1799.63,-23
1798.67,-22
1797.70,-8
1796.74,11
1795.77,18
1794.81,7
1793.84,-8
1792.88,-12
1791.92,-11
1790.95,-10
1789.99,-10
1789.02,-17
1788.06,-36
1787.10,-66
1786.13,-95
1785.17,-99
1784.20,-65
1783.24,-19
1782.27,4
1781.31,-2
1780.35,-6
1779.38,0
1778.42,-21
1777.45,-51
1776.49,-48
1775.52,-29
1774.56,-24
1773.60,-36
1772.63,-58
1771.67,-85
1770.70,-100
1769.74,-88
1768.77,-58
1767.81,-37
1766.85,-35
1765.88,-45
1764.92,-59
1763.95,-65
1762.99,-51
1762.03,-29
1761.06,-15
1760.10,-8
1759.13,-13
1758.17,-36
1757.20,-73
1756.24,-101
1755.28,-103
1754.31,-81
1753.35,-48
1752.38,-24
1751.42,-25
1750.45,-43
1749.49,-50
1748.53,-36
1747.56,-10
1746.60,13
1745.63,15
1744.67,-1
1743.70,-8
1742.74,3
1741.78,13
1740.81,6
1739.85,-7
1738.88,-11
1737.92,-12
1736.96,-19
1735.99,-22
1735.03,-16
1734.06,-6
1733.10,8
1732.13,22
1731.17,25
1730.21,21
1729.24,28
1728.28,50
1727.31,71
1726.35,69
1725.38,40
1724.42,-2
