Created As Omnic File,BIOL 014
Raman Shift / cm-1,INT
3418.58,24
3417.61,26
3416.65,19
3415.68,10
3414.72,9
3413.76,13
3412.79,16
3411.83,14
3410.86,6
3409.90,1
3408.94,7
3407.97,11
3407.01,7
3406.04,6
3405.08,11
3404.11,21
3403.15,30
3402.19,30
3401.22,21
3400.26,15
3399.29,15
3398.33,5
3397.36,-1
3396.40,6
3395.44,12
3394.47,17
3393.51,15
3392.54,10
3391.58,15
3390.61,28
3389.65,27
3388.69,11
3387.72,10
3386.76,14
3385.79,9
3384.83,5
3383.87,0
3382.90,2
3381.94,14
3380.97,15
3380.01,-2
3379.04,-17
3378.08,-18
3377.12,-9
3376.15,8
3375.19,21
3374.22,28
3373.26,28
3372.29,20
3371.33,11
3370.37,1
3369.40,-8
3368.44,-11
3367.47,-8
3366.51,-5
3365.54,1
3364.58,1
3363.62,-4
3362.65,-8
3361.69,-12
3360.72,-18
3359.76,-19
3358.80,-10
3357.83,1
3356.87,0
3355.90,-3
3354.94,-4
3353.97,-8
3353.01,-14
3352.05,-20
3351.08,-18
3350.12,-13
3349.15,-9
3348.19,-4
3347.22,3
3346.26,1
3345.30,-1
3344.33,5
3343.37,1
3342.40,-8
3341.44,-10
3340.47,-2
3339.51,8
3338.55,10
3337.58,1
3336.62,-11
3335.65,-11
3334.69,1
3333.73,0
3332.76,-7
3331.80,-7
3330.83,-10
3329.87,-20
3328.90,-34
3327.94,-37
3326.98,-28
3326.01,-23
3325.05,-16
3324.08,-9
3323.12,-12
3322.15,-15
3321.19,-9
3320.23,-1
3319.26,-4
3318.30,-12
3317.33,-16
3316.37,-18
3315.40,-12
3314.44,0
3313.48,-3
3312.51,-9
3311.55,-8
3310.58,-11
3309.62,-13
3308.66,-7
3307.69,2
3306.73,7
3305.76,8
3304.80,2
3303.83,-7
3302.87,-7
3301.91,0
3300.94,-4
3299.98,-5
3299.01,4
3298.05,12
3297.08,11
3296.12,3
3295.16,2
3294.19,13
3293.23,21
3292.26,27
3291.30,25
3290.33,6
3289.37,-14
3288.41,-14
3287.44,-7
3286.48,-17
3285.51,-31
3284.55,-22
3283.59,-1
3282.62,8
3281.66,7
3280.69,3
3279.73,-0
3278.76,0
3277.80,-5
3276.84,-17
3275.87,-25
3274.91,-23
3273.94,-17
3272.98,-14
3272.01,-15
3271.05,-12
3270.09,1
3269.12,15
3268.16,-2
3267.19,-31
3266.23,-34
3265.26,-22
3264.30,-8
3263.34,3
3262.37,7
3261.41,9
3260.44,10
3259.48,7
3258.51,-3
3257.55,-6
3256.59,5
3255.62,5
3254.66,0
3253.69,-6
3252.73,-11
3251.77,-9
3250.80,-4
3249.84,-8
3248.87,-14
3247.91,-8
3246.94,3
3245.98,9
3245.02,9
3244.05,6
3243.09,4
3242.12,4
3241.16,-3
3240.19,-15
3239.23,-12
3238.27,6
3237.30,17
3236.34,11
3235.37,4
3234.41,4
3233.44,2
3232.48,4
3231.52,7
3230.55,11
3229.59,15
3228.62,15
3227.66,6
3226.70,-7
3225.73,-19
3224.77,-20
3223.80,-7
3222.84,0
3221.87,-0
3220.91,-2
3219.95,-3
3218.98,0
3218.02,2
3217.05,-2
3216.09,-6
3215.12,1
3214.16,15
3213.20,11
3212.23,-6
3211.27,-6
3210.30,-3
3209.34,-7
3208.37,-10
3207.41,-7
3206.45,-5
3205.48,-10
3204.52,-15
3203.55,-8
3202.59,3
3201.63,12
3200.66,13
3199.70,2
3198.73,-6
3197.77,-7
3196.80,-8
3195.84,-6
3194.88,5
3193.91,14
3192.95,11
3191.98,-2
3191.02,-12
3190.05,-17
3189.09,-11
3188.13,-2
3187.16,-0
3186.20,3
3185.23,11
3184.27,14
3183.30,12
3182.34,8
3181.38,5
3180.41,3
3179.45,-3
3178.48,-8
3177.52,-8
3176.56,5
3175.59,21
3174.63,15
3173.66,-6
3172.70,-23
3171.73,-23
3170.77,-4
3169.81,15
3168.84,20
3167.88,15
3166.91,4
3165.95,-5
3164.98,-18
3164.02,-27
3163.06,-19
3162.09,-3
3161.13,2
3160.16,-0
3159.20,-4
3158.23,-14
3157.27,-15
3156.31,-6
3155.34,6
3154.38,17
3153.41,11
3152.45,-6
3151.49,-17
3150.52,-17
3149.56,-13
3148.59,-8
3147.63,-3
3146.66,1
3145.70,8
3144.74,9
3143.77,3
3142.81,7
3141.84,13
3140.88,15
3139.91,12
3138.95,8
3137.99,6
3137.02,2
3136.06,-4
3135.09,-8
3134.13,-9
3133.16,-6
3132.20,1
3131.24,3
3130.27,-2
3129.31,-7
3128.34,-5
3127.38,1
3126.42,-7
3125.45,-19
3124.49,-6
3123.52,20
3122.56,25
3121.59,13
3120.63,-5
3119.67,-14
3118.70,-16
3117.74,-17
3116.77,-15
3115.81,-12
3114.84,-19
3113.88,-27
3112.92,-28
3111.95,-19
3110.99,6
3110.02,18
3109.06,0
3108.09,-17
3107.13,-27
3106.17,-36
3105.20,-35
3104.24,-29
3103.27,-25
3102.31,-17
3101.34,-9
3100.38,-8
3099.42,-7
3098.45,-10
3097.49,-14
3096.52,-15
3095.56,-16
3094.60,-17
3093.63,-19
3092.67,-22
3091.70,-20
3090.74,-24
3089.77,-28
3088.81,-17
3087.85,-9
3086.88,-13
3085.92,-21
3084.95,-25
3083.99,-20
3083.02,-9
3082.06,-7
3081.10,-22
3080.13,-31
3079.17,-18
3078.20,-9
3077.24,-16
3076.27,-21
3075.31,-27
3074.35,-22
3073.38,-8
3072.42,-14
3071.45,-28
3070.49,-31
3069.53,-26
3068.56,-15
3067.60,-0
3066.63,2
3065.67,-5
3064.70,-9
3063.74,-17
3062.78,-24
3061.81,-27
3060.85,-23
3059.88,-11
3058.92,0
3057.95,7
3056.99,6
3056.03,-7
3055.06,-14
3054.10,-11
3053.13,-6
3052.17,-2
3051.20,-8
3050.24,-19
3049.28,-19
3048.31,-19
3047.35,-27
3046.38,-28
3045.42,-24
3044.46,-27
3043.49,-35
3042.53,-37
3041.56,-26
3040.60,-11
3039.63,-2
3038.67,2
3037.71,7
3036.74,12
3035.78,13
3034.81,-1
3033.85,-24
3032.88,-31
3031.92,-14
3030.96,2
3029.99,-0
3029.03,-4
3028.06,-2
3027.10,7
3026.13,15
3025.17,5
3024.21,-17
3023.24,-18
3022.28,-5
3021.31,-7
3020.35,-23
3019.39,-28
3018.42,-16
3017.46,-6
3016.49,2
3015.53,17
3014.56,28
3013.60,33
3012.64,32
3011.67,14
3010.71,-8
3009.74,-15
3008.78,-15
3007.81,-8
3006.85,-0
3005.89,-1
3004.92,2
3003.96,7
3002.99,5
3002.03,-1
3001.06,-5
3000.10,-6
2999.14,-2
2998.17,5
2997.21,6
2996.24,4
2995.28,1
2994.32,-3
2993.35,0
2992.39,-1
2991.42,-6
2990.46,1
2989.49,17
2988.53,31
2987.57,35
2986.60,21
2985.64,7
2984.67,5
2983.71,5
2982.74,8
2981.78,21
2980.82,34
2979.85,39
2978.89,38
2977.92,37
2976.96,38
2975.99,45
2975.03,57
2974.07,67
2973.10,71
2972.14,63
2971.17,51
2970.21,53
2969.25,64
2968.28,71
2967.32,78
2966.35,86
2965.39,90
2964.42,98
2963.46,101
2962.50,81
2961.53,64
2960.57,62
2959.60,61
2958.64,62
2957.67,62
2956.71,60
2955.75,64
2954.78,72
2953.82,63
2952.85,42
2951.89,37
2950.92,59
2949.96,80
2949.00,87
2948.03,79
2947.07,57
2946.10,43
2945.14,37
2944.17,28
2943.21,25
2942.25,30
2941.28,36
2940.32,38
2939.35,39
2938.39,39
2937.43,39
2936.46,36
2935.50,28
2934.53,28
2933.57,37
2932.60,42
2931.64,34
2930.68,16
2929.71,-3
2928.75,-8
2927.78,3
2926.82,17
2925.85,21
2924.89,11
2923.93,0
2922.96,-4
2922.00,-1
2921.03,2
2920.07,0
2919.10,1
2918.14,11
2917.18,25
2916.21,32
2915.25,18
2914.28,-5
2913.32,-14
2912.36,-10
2911.39,-7
2910.43,-7
2909.46,-6
2908.50,3
2907.53,23
2906.57,40
2905.61,35
2904.64,16
2903.68,9
2902.71,21
2901.75,44
2900.78,55
2899.82,45
2898.86,35
2897.89,38
2896.93,48
2895.96,53
2895.00,46
2894.03,36
2893.07,30
2892.11,30
2891.14,38
2890.18,47
2889.21,49
2888.25,49
2887.29,54
2886.32,70
2885.36,93
2884.39,104
2883.43,96
2882.46,89
2881.50,92
2880.54,93
2879.57,106
2878.61,135
2877.64,143
2876.68,135
2875.71,130
2874.75,126
2873.79,133
2872.82,147
2871.86,155
2870.89,149
2869.93,142
2868.96,145
2868.00,161
2867.04,183
2866.07,196
2865.11,186
2864.14,183
2863.18,207
2862.22,220
2861.25,203
2860.29,185
2859.32,190
2858.36,203
2857.39,209
2856.43,207
2855.47,208
2854.50,209
2853.54,196
2852.57,180
2851.61,168
2850.64,151
2849.68,134
2848.72,127
2847.75,125
2846.79,118
2845.82,108
2844.86,104
2843.89,105
2842.93,105
2841.97,103
2841.00,96
2840.04,80
2839.07,68
2838.11,59
2837.15,40
2836.18,15
2835.22,2
2834.25,4
2833.29,7
2832.32,9
2831.36,13
2830.40,12
2829.43,9
2828.47,8
2827.50,11
2826.54,24
2825.57,20
2824.61,-11
2823.65,-30
2822.68,-13
2821.72,19
2820.75,38
2819.79,43
2818.82,33
2817.86,16
2816.90,3
2815.93,-7
2814.97,-12
2814.00,-4
2813.04,4
2812.08,0
2811.11,-2
2810.15,2
2809.18,7
2808.22,13
2807.25,13
2806.29,6
2805.33,4
2804.36,4
2803.40,1
2802.43,-3
2801.47,-6
2800.50,-7
2799.54,-4
2798.58,-2
2797.61,-7
2796.65,-14
2795.68,-13
2794.72,-8
2793.75,-7
2792.79,-5
2791.83,-2
2790.86,-1
2789.90,1
2788.93,-0
2787.97,-8
2787.00,-6
2786.04,11
2785.08,27
2784.11,30
2783.15,20
2782.18,-4
2781.22,-20
2780.26,-15
2779.29,-6
2778.33,-6
2777.36,-4
2776.40,6
2775.43,7
2774.47,-2
2773.51,3
2772.54,19
2771.58,27
2770.61,23
2769.65,8
2768.68,-4
2767.72,-2
2766.76,8
2765.79,11
2764.83,3
2763.86,-1
2762.90,12
2761.93,26
2760.97,29
2760.01,30
2759.04,30
2758.08,29
2757.11,30
2756.15,26
2755.19,20
2754.22,17
2753.26,11
2752.29,12
2751.33,28
2750.36,51
2749.40,70
2748.44,78
2747.47,71
2746.51,51
2745.54,22
2744.58,0
2743.61,6
2742.65,24
2741.69,33
2740.72,31
2739.76,27
2738.79,21
2737.83,12
2736.86,2
2735.90,-11
2734.94,-21
2733.97,-12
2733.01,3
2732.04,1
2731.08,-8
2730.12,-9
2729.15,0
2728.19,14
2727.22,30
2726.26,44
2725.29,49
2724.33,39
2723.37,22
2722.40,11
2721.44,2
2720.47,-12
2719.51,-22
2718.54,-9
2717.58,17
2716.62,33
2715.65,29
2714.69,23
2713.72,23
2712.76,18
2711.79,9
2710.83,-7
2709.87,-29
2708.90,-32
2707.94,-29
2706.97,-30
2706.01,-28
2705.05,-29
2704.08,-22
2703.12,2
2702.15,25
2701.19,25
2700.22,-0
2699.26,-22
2698.30,-21
2697.33,-11
2696.37,-4
2695.40,-4
2694.44,-16
2693.47,-26
2692.51,-27
2691.55,-15
2690.58,9
2689.62,26
2688.65,14
2687.69,-6
2686.72,-7
2685.76,6
2684.80,16
2683.83,21
2682.87,27
2681.90,20
2680.94,-1
2679.98,-15
2679.01,-15
2678.05,-6
2677.08,9
2676.12,19
2675.15,8
2674.19,-16
2673.23,-18
2672.26,-10
2671.30,-14
2670.33,-18
2669.37,-20
2668.40,-26
2667.44,-34
2666.48,-36
2665.51,-24
2664.55,-7
2663.58,-3
2662.62,-10
2661.65,-12
2660.69,-5
2659.73,-9
2658.76,-18
2657.80,-2
2656.83,24
2655.87,26
2654.91,9
2653.94,-3
2652.98,-0
2652.01,2
2651.05,-3
2650.08,-5
2649.12,-3
2648.16,-7
2647.19,-10
2646.23,-11
2645.26,-9
2644.30,-5
2643.33,2
2642.37,17
2641.41,35
2640.44,42
2639.48,31
2638.51,11
2637.55,-3
2636.58,-6
2635.62,-10
2634.66,-16
2633.69,-20
2632.73,-28
2631.76,-44
2630.80,-48
2629.83,-28
2628.87,7
2627.91,41
2626.94,52
2625.98,31
2625.01,-3
2624.05,-23
2623.09,-26
2622.12,-17
2621.16,-12
2620.19,-18
2619.23,-24
2618.26,-19
2617.30,-13
2616.34,-16
2615.37,-27
2614.41,-31
2613.44,-27
2612.48,-31
2611.51,-41
2610.55,-34
2609.59,-6
2608.62,6
2607.66,-9
2606.69,-24
2605.73,-31
2604.76,-27
2603.80,-12
2602.84,-4
2601.87,-13
2600.91,-22
2599.94,-17
2598.98,-13
2598.02,-17
2597.05,-20
2596.09,-10
2595.12,2
2594.16,0
2593.19,-5
2592.23,-3
2591.27,3
2590.30,9
2589.34,13
2588.37,12
2587.41,7
2586.44,0
2585.48,-9
2584.52,-10
2583.55,-12
2582.59,-21
2581.62,-18
2580.66,-7
2579.69,2
2578.73,4
2577.77,-6
2576.80,-22
2575.84,-27
2574.87,-16
2573.91,7
2572.95,28
2571.98,29
2571.02,9
2570.05,-12
2569.09,-11
2568.12,11
2567.16,35
2566.20,42
2565.23,29
2564.27,8
2563.30,-4
2562.34,7
2561.37,31
2560.41,41
2559.45,34
2558.48,17
2557.52,0
2556.55,-2
2555.59,6
2554.62,16
2553.66,17
2552.70,7
2551.73,-6
2550.77,-17
2549.80,-28
2548.84,-32
2547.88,-28
2546.91,-19
2545.95,-9
2544.98,-4
2544.02,8
2543.05,22
2542.09,26
2541.13,20
2540.16,4
2539.20,-8
2538.23,-5
2537.27,8
2536.30,12
2535.34,6
2534.38,2
2533.41,1
2532.45,0
2531.48,-1
2530.52,-4
2529.55,-4
2528.59,5
2527.63,19
2526.66,24
2525.70,20
2524.73,14
2523.77,3
2522.81,-13
2521.84,-22
2520.88,-20
2519.91,-9
2518.95,-1
2517.98,-11
2517.02,-18
2516.06,-9
2515.09,-3
2514.13,1
2513.16,15
2512.20,29
2511.23,24
2510.27,7
2509.31,-4
2508.34,-5
2507.38,6
2506.41,16
2505.45,10
2504.48,-7
2503.52,-16
2502.56,-8
2501.59,6
2500.63,18
2499.66,24
2498.70,20
2497.74,17
2496.77,31
2495.81,45
2494.84,39
2493.88,15
2492.91,-3
2491.95,-12
2490.99,-9
2490.02,3
2489.06,18
2488.09,23
2487.13,12
2486.16,-6
2485.20,-19
2484.24,-18
2483.27,-2
2482.31,14
2481.34,20
2480.38,15
2479.41,5
2478.45,1
2477.49,0
2476.52,-10
2475.56,-21
2474.59,-22
2473.63,-14
2472.66,-13
2471.70,-23
2470.74,-29
2469.77,-24
2468.81,-16
2467.84,-4
2466.88,12
2465.92,23
2464.95,23
2463.99,16
2463.02,11
2462.06,6
2461.09,-1
2460.13,-7
2459.17,-10
2458.20,-8
2457.24,-8
2456.27,-17
2455.31,-21
2454.34,-7
2453.38,12
2452.42,17
2451.45,8
2450.49,1
2449.52,5
2448.56,8
2447.59,10
2446.63,7
2445.67,2
2444.70,8
2443.74,33
2442.77,71
2441.81,102
2440.85,109
2439.88,101
2438.92,86
2437.95,70
2436.99,62
2436.02,61
2435.06,58
2434.10,46
2433.13,39
2432.17,52
2431.20,72
2430.24,78
2429.27,72
2428.31,54
2427.35,29
2426.38,15
2425.42,8
2424.45,-4
2423.49,-13
2422.52,-2
2421.56,28
2420.60,54
2419.63,62
2418.67,56
2417.70,45
2416.74,39
2415.78,35
2414.81,17
2413.85,-12
2412.88,-38
2411.92,-46
2410.95,-27
2409.99,6
2409.03,23
2408.06,13
2407.10,-11
2406.13,-34
2405.17,-41
2404.20,-30
2403.24,-12
2402.28,-1
2401.31,-2
2400.35,-5
2399.38,3
2398.42,12
2397.45,15
2396.49,13
2395.53,7
2394.56,-4
2393.60,-15
2392.63,-22
2391.67,-23
2390.71,-20
2389.74,-12
2388.78,3
2387.81,21
2386.85,30
2385.88,22
2384.92,5
2383.96,-9
2382.99,-19
2382.03,-25
2381.06,-16
2380.10,11
2379.13,39
2378.17,64
2377.21,82
2376.24,80
2375.28,55
2374.31,21
2373.35,-9
2372.38,-25
2371.42,-25
2370.46,-13
2369.49,3
2368.53,14
2367.56,16
2366.60,19
2365.64,31
2364.67,40
2363.71,26
2362.74,2
2361.78,-8
2360.81,-8
2359.85,2
2358.89,12
2357.92,5
2356.96,-12
2355.99,-16
2355.03,-1
2354.06,21
2353.10,32
2352.14,23
2351.17,3
2350.21,-14
2349.24,-6
2348.28,17
2347.31,39
2346.35,49
2345.39,37
2344.42,11
2343.46,-6
2342.49,-7
2341.53,-4
2340.57,2
2339.60,10
2338.64,12
2337.67,15
2336.71,17
2335.74,8
2334.78,2
2333.82,2
2332.85,-2
2331.89,-2
2330.92,5
2329.96,17
2328.99,32
2328.03,42
2327.07,43
2326.10,46
2325.14,48
2324.17,40
2323.21,31
2322.24,23
2321.28,10
2320.32,3
2319.35,6
2318.39,14
2317.42,23
2316.46,28
2315.49,28
2314.53,28
2313.57,31
2312.60,34
2311.64,28
2310.67,18
2309.71,10
2308.75,7
2307.78,8
2306.82,5
2305.85,-8
2304.89,-18
2303.92,-14
2302.96,-1
2302.00,6
2301.03,1
2300.07,-6
2299.10,-4
2298.14,-0
2297.17,-3
2296.21,5
2295.25,14
2294.28,0
2293.32,-20
2292.35,-15
2291.39,8
2290.42,17
2289.46,3
2288.50,-22
2287.53,-40
2286.57,-38
2285.60,-27
2284.64,-18
2283.68,-8
2282.71,-1
2281.75,5
2280.78,13
2279.82,20
2278.85,20
2277.89,11
2276.93,-1
2275.96,-4
2275.00,3
2274.03,5
2273.07,0
2272.10,-2
2271.14,4
2270.18,16
2269.21,17
2268.25,8
2267.28,1
2266.32,-0
2265.35,3
2264.39,11
2263.43,20
2262.46,25
2261.50,32
2260.53,46
2259.57,58
2258.61,43
2257.64,0
2256.68,-34
2255.71,-49
2254.75,-43
2253.78,-17
2252.82,5
2251.86,12
2250.89,17
2249.93,20
2248.96,28
2248.00,38
2247.03,27
2246.07,9
2245.11,3
2244.14,-4
2243.18,-7
2242.21,-2
2241.25,-4
2240.28,-13
2239.32,-15
2238.36,-2
2237.39,13
2236.43,15
2235.46,-3
2234.50,-28
2233.54,-38
2232.57,-25
2231.61,-1
2230.64,20
2229.68,21
2228.71,-0
2227.75,-24
2226.79,-31
2225.82,-24
2224.86,-17
2223.89,-22
2222.93,-34
2221.96,-34
2221.00,-19
2220.04,-2
2219.07,1
2218.11,-21
2217.14,-49
2216.18,-54
2215.21,-33
2214.25,-3
2213.29,14
2212.32,5
2211.36,-12
2210.39,-20
2209.43,-17
2208.47,-16
2207.50,-25
2206.54,-39
2205.57,-42
2204.61,-20
2203.64,8
2202.68,21
2201.72,20
2200.75,8
2199.79,1
2198.82,10
2197.86,21
2196.89,16
2195.93,-3
2194.97,-27
2194.00,-45
2193.04,-48
2192.07,-37
2191.11,-18
2190.14,-1
2189.18,15
2188.22,33
2187.25,44
2186.29,45
2185.32,41
2184.36,30
2183.40,12
2182.43,-8
2181.47,-25
2180.50,-37
2179.54,-36
2178.57,-27
2177.61,-17
2176.65,-6
2175.68,-0
2174.72,-6
2173.75,-20
2172.79,-31
2171.82,-34
2170.86,-27
2169.90,-15
2168.93,-3
2167.97,-4
2167.00,-17
2166.04,-29
2165.07,-31
2164.11,-27
2163.15,-20
2162.18,-14
2161.22,-13
2160.25,-19
2159.29,-29
2158.32,-30
2157.36,-13
2156.40,2
2155.43,-2
2154.47,-18
2153.50,-26
2152.54,-22
2151.58,-12
2150.61,-5
2149.65,-5
2148.68,-9
2147.72,-8
2146.75,-0
2145.79,7
2144.83,5
2143.86,-5
2142.90,-12
2141.93,-19
2140.97,-29
2140.00,-37
2139.04,-35
2138.08,-24
2137.11,-11
2136.15,-1
2135.18,-3
2134.22,-10
2133.25,-6
2132.29,9
2131.33,21
2130.36,24
2129.40,16
2128.43,2
2127.47,-7
2126.51,-6
2125.54,-0
2124.58,5
2123.61,6
2122.65,0
2121.68,-3
2120.72,-1
2119.76,3
2118.79,13
2117.83,14
2116.86,3
2115.90,-4
2114.93,1
2113.97,3
2113.01,-1
2112.04,1
2111.08,19
2110.11,35
2109.15,37
2108.18,30
2107.22,15
2106.26,-2
2105.29,-4
2104.33,9
2103.36,21
2102.40,27
2101.44,28
2100.47,22
2099.51,11
2098.54,1
2097.58,-12
2096.61,-28
2095.65,-41
2094.69,-50
2093.72,-53
2092.76,-47
2091.79,-30
2090.83,-12
2089.86,-3
2088.90,-3
2087.94,-8
2086.97,-12
2086.01,-10
2085.04,0
2084.08,12
2083.11,17
2082.15,12
2081.19,-3
2080.22,-15
2079.26,-17
2078.29,-7
2077.33,13
2076.37,25
2075.40,21
2074.44,11
2073.47,5
2072.51,3
2071.54,1
2070.58,-6
2069.62,-23
2068.65,-38
2067.69,-31
2066.72,-2
2065.76,19
2064.79,20
2063.83,20
2062.87,28
2061.90,30
2060.94,18
2059.97,4
2059.01,0
2058.04,7
2057.08,11
2056.12,5
2055.15,-6
2054.19,-9
2053.22,-2
2052.26,3
2051.30,-2
2050.33,-9
2049.37,-14
2048.40,2
2047.44,32
2046.47,39
2045.51,21
2044.55,12
2043.58,32
2042.62,52
2041.65,47
2040.69,39
2039.72,52
2038.76,63
2037.80,51
2036.83,30
2035.87,11
2034.90,3
2033.94,8
2032.97,15
2032.01,23
2031.05,26
2030.08,22
2029.12,13
2028.15,3
2027.19,-3
2026.23,2
2025.26,9
2024.30,10
2023.33,16
2022.37,28
2021.40,31
2020.44,20
2019.48,6
2018.51,-8
2017.55,-17
2016.58,-21
2015.62,-25
2014.65,-27
2013.69,-23
2012.73,-10
2011.76,10
2010.80,34
2009.83,52
2008.87,53
2007.90,38
2006.94,17
2005.98,1
2005.01,-11
2004.05,-19
2003.08,-20
2002.12,-17
2001.15,-18
2000.19,-21
1999.23,-21
1998.26,-28
1997.30,-39
1996.33,-46
1995.37,-53
1994.41,-57
1993.44,-50
1992.48,-39
1991.51,-30
1990.55,-24
1989.58,-22
1988.62,-19
1987.66,-14
1986.69,-12
1985.73,-17
1984.76,-20
1983.80,-16
1982.83,-3
1981.87,17
1980.91,25
1979.94,8
1978.98,-27
1978.01,-59
1977.05,-68
1976.08,-55
1975.12,-38
1974.16,-31
1973.19,-33
1972.23,-36
1971.26,-31
1970.30,-18
1969.34,-10
1968.37,-10
1967.41,-6
1966.44,-1
1965.48,-11
1964.51,-20
1963.55,-16
1962.59,-6
1961.62,1
1960.66,-2
1959.69,-21
1958.73,-45
1957.76,-56
1956.80,-55
1955.84,-45
1954.87,-19
1953.91,4
1952.94,7
1951.98,1
1951.01,0
1950.05,-0
1949.09,1
1948.12,3
1947.16,-0
1946.19,-11
1945.23,-24
1944.27,-29
1943.30,-21
1942.34,-1
1941.37,23
1940.41,38
1939.44,35
1938.48,19
1937.52,-1
1936.55,-17
1935.59,-17
1934.62,-4
1933.66,6
1932.69,12
1931.73,20
1930.77,25
1929.80,17
1928.84,-2
1927.87,-19
1926.91,-22
1925.94,-18
1924.98,-8
1924.02,8
1923.05,13
1922.09,12
1921.12,14
1920.16,20
1919.20,23
1918.23,23
1917.27,29
1916.30,41
1915.34,47
1914.37,42
1913.41,33
1912.45,16
1911.48,-6
1910.52,-11
1909.55,3
1908.59,12
1907.62,5
1906.66,-7
1905.70,-11
1904.73,-6
1903.77,-5
1902.80,-10
1901.84,-7
1900.87,8
1899.91,13
1898.95,-2
1897.98,-13
1897.02,2
1896.05,27
1895.09,42
1894.13,42
1893.16,29
1892.20,11
1891.23,0
1890.27,-3
1889.30,-5
1888.34,-7
1887.38,-2
1886.41,14
1885.45,34
1884.48,39
1883.52,22
1882.55,-3
1881.59,-14
1880.63,-9
1879.66,-2
1878.70,2
1877.73,1
1876.77,-8
1875.80,-15
1874.84,-5
1873.88,19
1872.91,42
1871.95,54
1870.98,49
1870.02,27
1869.06,0
1868.09,-10
1867.13,6
1866.16,28
1865.20,30
1864.23,17
1863.27,3
1862.31,-3
1861.34,-7
1860.38,-15
1859.41,-24
1858.45,-23
1857.48,-10
1856.52,2
1855.56,9
1854.59,15
1853.63,28
1852.66,36
1851.70,24
1850.73,-9
1849.77,-25
1848.81,-20
1847.84,-7
1846.88,9
1845.91,17
1844.95,14
1843.98,12
1843.02,19
1842.06,31
1841.09,42
1840.13,35
1839.16,-0
1838.20,-41
1837.24,-48
1836.27,-21
1835.31,6
1834.34,12
1833.38,3
1832.41,-13
1831.45,-27
1830.49,-33
1829.52,-29
1828.56,-26
1827.59,-35
1826.63,-40
1825.66,-16
1824.70,17
1823.74,25
1822.77,14
1821.81,7
1820.84,-3
1819.88,-18
1818.91,-26
1817.95,-21
1816.99,-14
1816.02,-15
1815.06,-21
1814.09,-24
1813.13,-20
1812.17,-9
1811.20,3
1810.24,13
1809.27,13
1808.31,5
1807.34,-1
1806.38,-1
1805.42,-6
1804.45,-10
1803.49,-9
1802.52,-12
1801.56,-20
1800.59,-24
1799.63,-18
1798.67,-7
1797.70,0
1796.74,3
1795.77,7
1794.81,4
1793.84,-1
1792.88,-2
1791.92,1
1790.95,4
1789.99,3
1789.02,-8
1788.06,-26
1787.10,-37
1786.13,-36
1785.17,-26
1784.20,-12
1783.24,7
1782.27,22
1781.31,18
1780.35,10
1779.38,4
1778.42,1
1777.45,5
1776.49,18
1775.52,29
1774.56,27
1773.60,10
1772.63,-12
1771.67,-29
1770.70,-32
1769.74,-16
1768.77,8
1767.81,24
1766.85,24
1765.88,14
1764.92,1
1763.95,-7
1762.99,-2
1762.03,9
1761.06,18
1760.10,24
1759.13,18
1758.17,-7
1757.20,-38
1756.24,-56
1755.28,-54
1754.31,-36
1753.35,-13
1752.38,5
1751.42,7
1750.45,-3
1749.49,-10
1748.53,-6
1747.56,3
1746.60,10
1745.63,13
1744.67,11
1743.70,9
1742.74,12
1741.78,18
1740.81,24
1739.85,25
1738.88,20
1737.92,11
1736.96,3
1735.99,0
1735.03,2
1734.06,6
1733.10,12
1732.13,19
1731.17,21
1730.21,25
1729.24,39
1728.28,53
1727.31,55
1726.35,47
1725.38,35
1724.42,15
1723.46,-5
1722.49,-15
1721.53,-13
1720.56,-1
1719.60,17
1718.63,31
1717.67,33
1716.71,29
1715.74,25
1714.78,23
1713.81,23
1712.85,16
1711.89,2
1710.92,-6
1709.96,3
1708.99,15
1708.03,11
1707.06,3
1706.10,-4
1705.14,-9
1704.17,-6
1703.21,-2
1702.24,2
1701.28,13
1700.31,24
1699.35,28
1698.39,22
1697.42,11
1696.46,-7
1695.49,-29
1694.53,-45
1693.56,-42
1692.60,-22
1691.64,5
1690.67,23
1689.71,31
1688.74,21
