Created As Omnic File,PLAS 104
Raman Shift / cm-1,INT
3418.58,0
3417.61,-1
3416.65,-1
3415.68,-0
3414.72,-1
3413.76,-3
3412.79,-5
3411.83,-6
3410.86,-5
3409.90,-4
3408.94,-3
3407.97,-3
3407.01,-5
3406.04,-4
3405.08,-2
3404.11,-1
3403.15,-1
3402.19,-2
3401.22,-4
3400.26,-5
3399.29,-5
3398.33,-4
3397.36,-3
3396.40,-1
3395.44,-1
3394.47,-2
3393.51,-2
3392.54,-2
3391.58,0
3390.61,3
3389.65,4
3388.69,3
3387.72,-0
3386.76,-2
3385.79,-0
3384.83,2
3383.87,3
3382.90,3
3381.94,4
3380.97,3
3380.01,-0
3379.04,-3
3378.08,-4
3377.12,0
3376.15,4
3375.19,5
3374.22,6
3373.26,7
3372.29,7
3371.33,3
3370.37,1
3369.40,1
3368.44,3
3367.47,4
3366.51,2
3365.54,-1
3364.58,-1
3363.62,1
3362.65,1
3361.69,-0
3360.72,1
3359.76,2
3358.80,2
3357.83,3
3356.87,4
3355.90,4
3354.94,3
3353.97,2
3353.01,2
3352.05,1
3351.08,0
3350.12,-0
3349.15,1
3348.19,3
3347.22,6
3346.26,5
3345.30,3
3344.33,3
3343.37,3
3342.40,4
3341.44,6
3340.47,6
3339.51,5
3338.55,2
3337.58,-0
3336.62,-0
3335.65,0
3334.69,-0
3333.73,0
3332.76,1
3331.80,1
3330.83,1
3329.87,0
3328.90,-1
3327.94,-2
3326.98,-2
3326.01,-1
3325.05,0
3324.08,-0
3323.12,-1
3322.15,-1
3321.19,-1
3320.23,-2
3319.26,-2
3318.30,-2
3317.33,-2
3316.37,-2
3315.40,-4
3314.44,-6
3313.48,-4
3312.51,-2
3311.55,-4
3310.58,-5
3309.62,-3
3308.66,-2
3307.69,-2
3306.73,-4
3305.76,-5
3304.80,-5
3303.83,-3
3302.87,-3
3301.91,-5
3300.94,-5
3299.98,-5
3299.01,-4
3298.05,-3
3297.08,-3
3296.12,-3
3295.16,-2
3294.19,-0
3293.23,1
3292.26,2
3291.30,2
3290.33,-0
3289.37,-3
3288.41,-4
3287.44,-5
3286.48,-6
3285.51,-7
3284.55,-5
3283.59,-1
3282.62,-1
3281.66,-2
3280.69,-4
3279.73,-4
3278.76,-1
3277.80,-0
3276.84,-2
3275.87,-3
3274.91,-2
3273.94,-2
3272.98,-4
3272.01,-4
3271.05,-3
3270.09,-3
3269.12,-5
3268.16,-5
3267.19,-3
3266.23,-3
3265.26,-2
3264.30,-1
3263.34,-1
3262.37,-3
3261.41,-3
3260.44,1
3259.48,3
3258.51,-1
3257.55,-3
3256.59,-2
3255.62,-1
3254.66,1
3253.69,-0
3252.73,-3
3251.77,-3
3250.80,-1
3249.84,-2
3248.87,-4
3247.91,-4
3246.94,-3
3245.98,-2
3245.02,-2
3244.05,-2
3243.09,-1
3242.12,0
3241.16,-1
3240.19,-4
3239.23,-4
3238.27,-2
3237.30,-1
3236.34,-1
3235.37,-3
3234.41,-5
3233.44,-3
3232.48,-0
3231.52,-1
3230.55,-4
3229.59,-3
3228.62,-2
3227.66,-5
3226.70,-8
3225.73,-8
3224.77,-7
3223.80,-7
3222.84,-7
3221.87,-6
3220.91,-6
3219.95,-8
3218.98,-8
3218.02,-7
3217.05,-5
3216.09,-4
3215.12,-2
3214.16,-1
3213.20,-1
3212.23,-2
3211.27,-2
3210.30,-3
3209.34,-4
3208.37,-4
3207.41,-2
3206.45,-1
3205.48,-1
3204.52,-1
3203.55,2
3202.59,5
3201.63,5
3200.66,4
3199.70,3
3198.73,1
3197.77,-0
3196.80,-1
3195.84,-0
3194.88,-0
3193.91,-2
3192.95,-1
3191.98,1
3191.02,-1
3190.05,-3
3189.09,-3
3188.13,-3
3187.16,-2
3186.20,-1
3185.23,1
3184.27,1
3183.30,1
3182.34,1
3181.38,2
3180.41,2
3179.45,1
3178.48,1
3177.52,3
3176.56,5
3175.59,6
3174.63,6
3173.66,4
3172.70,3
3171.73,2
3170.77,6
3169.81,10
3168.84,13
3167.88,15
3166.91,13
3165.95,12
3164.98,11
3164.02,11
3163.06,10
3162.09,10
3161.13,13
3160.16,16
3159.20,13
3158.23,9
3157.27,7
3156.31,6
3155.34,7
3154.38,8
3153.41,7
3152.45,4
3151.49,2
3150.52,3
3149.56,7
3148.59,7
3147.63,4
3146.66,3
3145.70,4
3144.74,4
3143.77,4
3142.81,4
3141.84,4
3140.88,4
3139.91,4
3138.95,5
3137.99,5
3137.02,3
3136.06,1
3135.09,3
3134.13,4
3133.16,5
3132.20,4
3131.24,2
3130.27,0
3129.31,-0
3128.34,1
3127.38,2
3126.42,1
3125.45,-1
3124.49,1
3123.52,4
3122.56,2
3121.59,-4
3120.63,-3
3119.67,1
3118.70,2
3117.74,2
3116.77,1
3115.81,1
3114.84,-0
3113.88,0
3112.92,2
3111.95,5
3110.99,4
3110.02,5
3109.06,8
3108.09,10
3107.13,9
3106.17,6
3105.20,3
3104.24,2
3103.27,4
3102.31,7
3101.34,9
3100.38,9
3099.42,7
3098.45,8
3097.49,10
3096.52,12
3095.56,13
3094.60,14
3093.63,14
3092.67,14
3091.70,15
3090.74,19
3089.77,24
3088.81,27
3087.85,28
3086.88,32
3085.92,36
3084.95,39
3083.99,43
3083.02,45
3082.06,47
3081.10,49
3080.13,53
3079.17,59
3078.20,67
3077.24,73
3076.27,83
3075.31,96
3074.35,107
3073.38,116
3072.42,127
3071.45,143
3070.49,159
3069.53,175
3068.56,195
3067.60,218
3066.63,239
3065.67,257
3064.70,276
3063.74,294
3062.78,307
3061.81,318
3060.85,327
3059.88,336
3058.92,340
3057.95,343
3056.99,347
3056.03,350
3055.06,350
3054.10,349
3053.13,349
3052.17,346
3051.20,332
3050.24,312
3049.28,288
3048.31,263
3047.35,240
3046.38,219
3045.42,202
3044.46,187
3043.49,175
3042.53,168
3041.56,169
3040.60,170
3039.63,169
3038.67,169
3037.71,168
3036.74,166
3035.78,161
3034.81,153
3033.85,144
3032.88,135
3031.92,126
3030.96,118
3029.99,110
3029.03,101
3028.06,91
3027.10,81
3026.13,73
3025.17,68
3024.21,63
3023.24,55
3022.28,46
3021.31,39
3020.35,32
3019.39,28
3018.42,28
3017.46,26
3016.49,23
3015.53,21
3014.56,19
3013.60,18
3012.64,19
3011.67,17
3010.71,17
3009.74,19
3008.78,21
3007.81,21
3006.85,22
3005.89,27
3004.92,31
3003.96,34
3002.99,35
3002.03,36
3001.06,35
3000.10,33
2999.14,29
2998.17,23
2997.21,18
2996.24,13
2995.28,10
2994.32,10
2993.35,10
2992.39,9
2991.42,7
2990.46,6
2989.49,8
2988.53,11
2987.57,12
2986.60,10
2985.64,8
2984.67,9
2983.71,14
2982.74,20
2981.78,24
2980.82,27
2979.85,31
2978.89,35
2977.92,35
2976.96,34
2975.99,35
2975.03,36
2974.07,33
2973.10,28
2972.14,25
2971.17,22
2970.21,19
2969.25,18
2968.28,19
2967.32,21
2966.35,23
2965.39,23
2964.42,25
2963.46,26
2962.50,25
2961.53,26
2960.57,29
2959.60,31
2958.64,31
2957.67,31
2956.71,31
2955.75,33
2954.78,35
2953.82,37
2952.85,38
2951.89,40
2950.92,43
2949.96,46
2949.00,48
2948.03,49
2947.07,49
2946.10,53
2945.14,60
2944.17,63
2943.21,64
2942.25,65
2941.28,68
2940.32,70
2939.35,73
2938.39,74
2937.43,74
2936.46,78
2935.50,84
2934.53,85
2933.57,84
2932.60,84
2931.64,84
2930.68,86
2929.71,90
2928.75,92
2927.78,93
2926.82,96
2925.85,100
2924.89,102
2923.93,104
2922.96,104
2922.00,106
2921.03,109
2920.07,114
2919.10,117
2918.14,119
2917.18,124
2916.21,127
2915.25,126
2914.28,121
2913.32,123
2912.36,128
2911.39,132
2910.43,134
2909.46,135
2908.50,137
2907.53,140
2906.57,143
2905.61,141
2904.64,137
2903.68,136
2902.71,137
2901.75,136
2900.78,133
2899.82,132
2898.86,132
2897.89,128
2896.93,125
2895.96,123
2895.00,120
2894.03,115
2893.07,109
2892.11,103
2891.14,97
2890.18,95
2889.21,93
2888.25,87
2887.29,83
2886.32,82
2885.36,82
2884.39,80
2883.43,75
2882.46,68
2881.50,63
2880.54,60
2879.57,60
2878.61,59
2877.64,56
2876.68,54
2875.71,53
2874.75,52
2873.79,51
2872.82,49
2871.86,45
2870.89,42
2869.93,41
2868.96,42
2868.00,44
2867.04,47
2866.07,50
2865.11,52
2864.14,52
2863.18,52
2862.22,53
2861.25,55
2860.29,58
2859.32,59
2858.36,62
2857.39,66
2856.43,68
2855.47,70
2854.50,70
2853.54,70
2852.57,68
2851.61,65
2850.64,61
2849.68,57
2848.72,55
2847.75,56
2846.79,54
2845.82,47
2844.86,41
2843.89,39
2842.93,37
2841.97,33
2841.00,29
2840.04,25
2839.07,22
2838.11,20
2837.15,17
2836.18,14
2835.22,11
2834.25,7
2833.29,5
2832.32,5
2831.36,6
2830.40,7
2829.43,6
2828.47,3
2827.50,2
2826.54,5
2825.57,7
2824.61,5
2823.65,4
2822.68,4
2821.72,6
2820.75,8
2819.79,9
2818.82,12
2817.86,11
2816.90,6
2815.93,5
2814.97,7
2814.00,10
2813.04,12
2812.08,9
2811.11,4
2810.15,2
2809.18,4
2808.22,7
2807.25,8
2806.29,8
2805.33,8
2804.36,8
2803.40,9
2802.43,8
2801.47,4
2800.50,2
2799.54,6
2798.58,8
2797.61,7
2796.65,5
2795.68,3
2794.72,1
2793.75,-1
2792.79,-1
2791.83,1
2790.86,2
2789.90,2
2788.93,2
2787.97,2
2787.00,4
2786.04,8
2785.08,10
2784.11,7
2783.15,2
2782.18,-1
2781.22,-2
2780.26,-2
2779.29,-2
2778.33,-3
2777.36,-3
2776.40,1
2775.43,3
2774.47,2
2773.51,0
2772.54,-2
2771.58,-3
2770.61,-1
2769.65,0
2768.68,-3
2767.72,-4
2766.76,-1
2765.79,-0
2764.83,-2
2763.86,-4
2762.90,-3
2761.93,-2
2760.97,-3
2760.01,-2
2759.04,0
2758.08,2
2757.11,-1
2756.15,-4
2755.19,-5
2754.22,-4
2753.26,-2
2752.29,-1
2751.33,-1
2750.36,-1
2749.40,-1
2748.44,-1
2747.47,-2
2746.51,-3
2745.54,-4
2744.58,-5
2743.61,-6
2742.65,-6
2741.69,-1
2740.72,3
2739.76,1
2738.79,-5
2737.83,-8
2736.86,-8
2735.90,-5
2734.94,0
2733.97,1
2733.01,0
2732.04,-0
2731.08,-1
2730.12,-2
2729.15,-1
2728.19,0
2727.22,1
2726.26,1
2725.29,1
2724.33,-0
2723.37,-1
2722.40,-2
2721.44,-2
2720.47,-2
2719.51,-1
2718.54,-0
2717.58,1
2716.62,3
2715.65,4
2714.69,3
2713.72,-0
2712.76,-3
2711.79,-4
2710.83,-4
2709.87,-4
2708.90,-2
2707.94,-1
2706.97,-3
2706.01,-6
2705.05,-8
2704.08,-10
2703.12,-6
2702.15,0
2701.19,2
2700.22,-4
2699.26,-8
2698.30,-6
2697.33,-4
2696.37,-3
2695.40,-4
2694.44,-5
2693.47,-4
2692.51,-0
2691.55,2
2690.58,-2
2689.62,-4
2688.65,-1
2687.69,2
2686.72,-1
2685.76,-3
2684.80,-3
2683.83,-2
2682.87,-0
2681.90,0
2680.94,-3
2679.98,-5
2679.01,-6
2678.05,-4
2677.08,-1
2676.12,3
2675.15,2
2674.19,-2
2673.23,-4
2672.26,-4
2671.30,-5
2670.33,-5
2669.37,-3
2668.40,-2
2667.44,-2
2666.48,-1
2665.51,-2
2664.55,-3
2663.58,-3
2662.62,-4
2661.65,-4
2660.69,-3
2659.73,-3
2658.76,-2
2657.80,0
2656.83,2
2655.87,1
2654.91,-1
2653.94,-4
2652.98,-4
2652.01,-3
2651.05,-1
2650.08,-0
2649.12,-1
2648.16,-2
2647.19,-4
2646.23,-4
2645.26,-2
2644.30,-0
2643.33,1
2642.37,3
2641.41,3
2640.44,3
2639.48,2
2638.51,1
2637.55,3
2636.58,5
2635.62,0
2634.66,-5
2633.69,-4
2632.73,-3
2631.76,-2
2630.80,-1
2629.83,-2
2628.87,-2
2627.91,3
2626.94,7
2625.98,4
2625.01,-1
2624.05,-2
2623.09,0
2622.12,2
2621.16,3
2620.19,3
2619.23,3
2618.26,4
2617.30,4
2616.34,3
2615.37,2
2614.41,2
2613.44,3
2612.48,2
2611.51,-1
2610.55,-2
2609.59,0
2608.62,2
2607.66,1
2606.69,1
2605.73,3
2604.76,4
2603.80,5
2602.84,4
2601.87,3
2600.91,2
2599.94,4
2598.98,6
2598.02,6
2597.05,6
2596.09,3
2595.12,0
2594.16,0
2593.19,0
2592.23,0
2591.27,0
2590.30,-1
2589.34,-2
2588.37,-2
2587.41,0
2586.44,1
2585.48,1
2584.52,1
2583.55,1
2582.59,-2
2581.62,-4
2580.66,-1
2579.69,4
2578.73,6
2577.77,4
2576.80,1
2575.84,1
2574.87,1
2573.91,2
2572.95,3
2571.98,5
2571.02,4
2570.05,5
2569.09,5
2568.12,4
2567.16,5
2566.20,7
2565.23,7
2564.27,6
2563.30,5
2562.34,3
2561.37,3
2560.41,5
2559.45,6
2558.48,4
2557.52,3
2556.55,4
2555.59,6
2554.62,5
2553.66,2
2552.70,0
2551.73,-1
2550.77,-0
2549.80,0
2548.84,0
2547.88,-1
2546.91,-1
2545.95,-1
2544.98,0
2544.02,2
2543.05,5
2542.09,7
2541.13,6
2540.16,4
2539.20,3
2538.23,4
2537.27,6
2536.30,4
2535.34,1
2534.38,0
2533.41,0
2532.45,0
2531.48,1
2530.52,2
2529.55,2
2528.59,1
2527.63,1
2526.66,1
2525.70,2
2524.73,2
2523.77,1
2522.81,-1
2521.84,-2
2520.88,-0
2519.91,3
2518.95,4
2517.98,2
2517.02,-2
2516.06,-6
2515.09,-8
2514.13,-7
2513.16,-4
2512.20,-2
2511.23,-2
2510.27,-3
2509.31,-3
2508.34,-2
2507.38,-1
2506.41,-1
2505.45,-3
2504.48,-5
2503.52,-5
2502.56,-4
2501.59,-2
2500.63,-3
2499.66,-4
2498.70,-4
2497.74,-2
2496.77,-1
2495.81,-1
2494.84,-1
2493.88,-2
2492.91,-3
2491.95,-4
2490.99,-2
2490.02,0
2489.06,2
2488.09,3
2487.13,1
2486.16,-2
2485.20,-4
2484.24,-6
2483.27,-4
2482.31,1
2481.34,3
2480.38,1
2479.41,-1
2478.45,-0
2477.49,2
2476.52,1
2475.56,0
2474.59,0
2473.63,2
2472.66,3
2471.70,2
2470.74,1
2469.77,1
2468.81,2
2467.84,4
2466.88,5
2465.92,6
2464.95,6
2463.99,4
2463.02,4
2462.06,5
2461.09,5
2460.13,3
2459.17,3
2458.20,4
2457.24,6
2456.27,9
2455.31,13
2454.34,18
2453.38,23
2452.42,26
2451.45,27
2450.49,26
2449.52,27
2448.56,28
2447.59,30
2446.63,32
2445.67,33
2444.70,38
2443.74,46
2442.77,52
2441.81,55
2440.85,57
2439.88,58
2438.92,58
2437.95,57
2436.99,56
2436.02,56
2435.06,56
2434.10,53
2433.13,49
2432.17,45
2431.20,41
2430.24,36
2429.27,30
2428.31,26
2427.35,22
2426.38,18
2425.42,14
2424.45,12
2423.49,11
2422.52,12
2421.56,12
2420.60,11
2419.63,9
2418.67,7
2417.70,7
2416.74,7
2415.78,4
2414.81,0
2413.85,-3
2412.88,-5
2411.92,-5
2410.95,-3
2409.99,-1
2409.03,-1
2408.06,-2
2407.10,-3
2406.13,-4
2405.17,-4
2404.20,-2
2403.24,0
2402.28,2
2401.31,4
2400.35,4
2399.38,5
2398.42,6
2397.45,5
2396.49,5
2395.53,4
2394.56,2
2393.60,0
2392.63,-0
2391.67,2
2390.71,5
2389.74,5
2388.78,4
2387.81,7
2386.85,9
2385.88,8
2384.92,6
2383.96,4
2382.99,4
2382.03,2
2381.06,-0
2380.10,1
2379.13,5
2378.17,9
2377.21,11
2376.24,11
2375.28,9
2374.31,6
2373.35,3
2372.38,2
2371.42,3
2370.46,5
2369.49,5
2368.53,4
2367.56,6
2366.60,10
2365.64,10
2364.67,5
2363.71,1
2362.74,-1
2361.78,-2
2360.81,-1
2359.85,1
2358.89,2
2357.92,1
2356.96,-0
2355.99,-1
2355.03,-1
2354.06,-2
2353.10,0
2352.14,2
2351.17,1
2350.21,-0
2349.24,1
2348.28,4
2347.31,4
2346.35,2
2345.39,-0
2344.42,-2
2343.46,-3
2342.49,-3
2341.53,-4
2340.57,-5
2339.60,-6
2338.64,-5
2337.67,-5
2336.71,-6
2335.74,-8
2334.78,-8
2333.82,-5
2332.85,-3
2331.89,-0
2330.92,4
2329.96,9
2328.99,12
2328.03,11
2327.07,9
2326.10,6
2325.14,3
2324.17,-0
2323.21,-4
2322.24,-8
2321.28,-11
2320.32,-12
2319.35,-10
2318.39,-7
2317.42,-5
2316.46,-5
2315.49,-7
2314.53,-7
2313.57,-5
2312.60,-4
2311.64,-5
2310.67,-6
2309.71,-6
2308.75,-6
2307.78,-8
2306.82,-9
2305.85,-8
2304.89,-8
2303.92,-8
2302.96,-8
2302.00,-7
2301.03,-8
2300.07,-11
2299.10,-14
2298.14,-13
2297.17,-10
2296.21,-10
2295.25,-10
2294.28,-12
2293.32,-13
2292.35,-11
2291.39,-8
2290.42,-6
2289.46,-6
2288.50,-9
2287.53,-12
2286.57,-14
2285.60,-10
2284.64,-6
2283.68,-6
2282.71,-8
2281.75,-5
2280.78,0
2279.82,1
2278.85,-2
2277.89,-5
2276.93,-3
2275.96,-0
2275.00,0
2274.03,0
2273.07,-0
2272.10,-0
2271.14,-1
2270.18,-0
2269.21,-1
2268.25,-2
2267.28,-4
2266.32,-5
2265.35,-6
2264.39,-5
2263.43,-2
2262.46,1
2261.50,4
2260.53,4
2259.57,4
2258.61,5
2257.64,4
2256.68,-1
2255.71,-5
2254.75,-7
2253.78,-5
2252.82,-2
2251.86,-0
2250.89,2
2249.93,4
2248.96,6
2248.00,8
2247.03,7
2246.07,2
2245.11,-1
2244.14,-1
2243.18,-2
2242.21,-3
2241.25,-4
2240.28,-3
2239.32,0
2238.36,2
2237.39,3
2236.43,2
2235.46,-2
2234.50,-6
2233.54,-7
2232.57,-6
2231.61,-1
2230.64,2
2229.68,1
2228.71,-2
2227.75,-4
2226.79,-4
2225.82,-4
2224.86,-5
2223.89,-4
2222.93,-2
2221.96,-2
2221.00,-3
2220.04,-4
2219.07,-4
2218.11,-5
2217.14,-7
2216.18,-6
2215.21,-6
2214.25,-3
2213.29,-0
2212.32,0
2211.36,-3
2210.39,-6
2209.43,-6
2208.47,-4
2207.50,-3
2206.54,-3
2205.57,-3
2204.61,-2
2203.64,-1
2202.68,-1
2201.72,-0
2200.75,3
2199.79,5
2198.82,4
2197.86,1
2196.89,-1
2195.93,-2
2194.97,-3
2194.00,-3
2193.04,-4
2192.07,-4
2191.11,-3
2190.14,-2
2189.18,0
2188.22,4
2187.25,7
2186.29,6
2185.32,4
2184.36,2
2183.40,0
2182.43,-0
2181.47,0
2180.50,-0
2179.54,-1
2178.57,-1
2177.61,-0
2176.65,1
2175.68,4
2174.72,4
2173.75,1
2172.79,-2
2171.82,-2
2170.86,-0
2169.90,2
2168.93,4
2167.97,4
2167.00,1
2166.04,-0
2165.07,0
2164.11,1
2163.15,3
2162.18,3
2161.22,3
2160.25,2
2159.29,2
2158.32,3
2157.36,5
2156.40,5
2155.43,2
2154.47,-2
2153.50,-3
2152.54,1
2151.58,6
2150.61,7
2149.65,6
2148.68,2
2147.72,-2
2146.75,-3
2145.79,-1
2144.83,2
2143.86,5
2142.90,3
2141.93,0
2140.97,-2
2140.00,0
2139.04,3
2138.08,2
2137.11,2
2136.15,3
2135.18,3
2134.22,2
2133.25,2
2132.29,5
2131.33,7
2130.36,6
2129.40,3
2128.43,0
2127.47,0
2126.51,1
2125.54,3
2124.58,4
2123.61,4
2122.65,3
2121.68,2
2120.72,2
2119.76,1
2118.79,0
2117.83,1
2116.86,2
2115.90,2
2114.93,1
2113.97,-0
2113.01,0
2112.04,1
2111.08,2
2110.11,3
2109.15,5
2108.18,6
2107.22,4
2106.26,0
2105.29,1
2104.33,4
2103.36,6
2102.40,6
2101.44,5
2100.47,4
2099.51,2
2098.54,3
2097.58,3
2096.61,1
2095.65,-3
2094.69,-3
2093.72,-2
2092.76,-2
2091.79,-2
2090.83,-1
2089.86,0
2088.90,1
2087.94,-0
2086.97,-2
2086.01,-3
2085.04,-3
2084.08,-0
2083.11,4
2082.15,4
2081.19,0
2080.22,0
2079.26,4
2078.29,4
2077.33,1
2076.37,-1
2075.40,2
2074.44,4
2073.47,5
2072.51,4
2071.54,1
2070.58,-1
2069.62,-3
2068.65,-3
2067.69,-3
2066.72,-4
2065.76,-4
2064.79,-2
2063.83,0
2062.87,1
2061.90,0
2060.94,-3
2059.97,-7
2059.01,-8
2058.04,-5
2057.08,-4
2056.12,-4
2055.15,-6
2054.19,-8
2053.22,-8
2052.26,-8
2051.30,-8
2050.33,-8
2049.37,-10
2048.40,-10
2047.44,-9
2046.47,-5
2045.51,-1
2044.55,2
2043.58,2
2042.62,2
2041.65,5
2040.69,7
2039.72,6
2038.76,3
2037.80,1
2036.83,1
2035.87,1
2034.90,3
2033.94,4
2032.97,1
2032.01,1
2031.05,3
2030.08,5
2029.12,3
2028.15,0
2027.19,-2
2026.23,-2
2025.26,-1
2024.30,0
2023.33,2
2022.37,5
2021.40,6
2020.44,3
2019.48,-0
2018.51,-2
2017.55,-3
2016.58,-2
2015.62,-1
2014.65,-0
2013.69,0
2012.73,1
2011.76,3
2010.80,5
2009.83,5
2008.87,4
2007.90,3
2006.94,3
2005.98,1
2005.01,-1
2004.05,-4
2003.08,-7
2002.12,-6
2001.15,-2
2000.19,1
1999.23,1
1998.26,-1
1997.30,-1
1996.33,-0
1995.37,-1
1994.41,-2
1993.44,-2
1992.48,-3
1991.51,-2
1990.55,1
1989.58,2
1988.62,0
1987.66,-0
1986.69,1
1985.73,4
1984.76,5
1983.80,7
1982.83,7
1981.87,6
1980.91,6
1979.94,6
1978.98,4
1978.01,-0
1977.05,-2
1976.08,0
1975.12,3
1974.16,3
1973.19,1
1972.23,0
1971.26,2
1970.30,6
1969.34,8
1968.37,8
1967.41,6
1966.44,4
1965.48,3
1964.51,4
1963.55,5
1962.59,7
1961.62,7
1960.66,7
1959.69,5
1958.73,5
1957.76,6
1956.80,5
1955.84,4
1954.87,4
1953.91,2
1952.94,1
1951.98,-1
1951.01,-1
1950.05,0
1949.09,1
1948.12,2
1947.16,2
1946.19,1
1945.23,-0
1944.27,-1
1943.30,0
1942.34,0
1941.37,0
1940.41,1
1939.44,4
1938.48,4
1937.52,1
1936.55,-2
1935.59,-2
1934.62,-0
1933.66,1
1932.69,0
1931.73,1
1930.77,4
1929.80,6
1928.84,4
1927.87,2
1926.91,2
1925.94,1
1924.98,4
1924.02,7
1923.05,6
1922.09,3
1921.12,1
1920.16,2
1919.20,3
1918.23,6
1917.27,8
1916.30,8
1915.34,5
1914.37,3
1913.41,1
1912.45,-1
1911.48,-1
1910.52,-0
1909.55,2
1908.59,4
1907.62,4
1906.66,2
1905.70,-1
1904.73,-4
1903.77,-5
1902.80,-4
1901.84,-2
1900.87,1
1899.91,3
1898.95,3
1897.98,4
1897.02,3
1896.05,2
1895.09,2
1894.13,3
1893.16,2
1892.20,1
1891.23,1
1890.27,0
1889.30,-0
1888.34,-1
1887.38,-0
1886.41,4
1885.45,9
1884.48,9
1883.52,3
1882.55,-2
1881.59,0
1880.63,3
1879.66,3
1878.70,1
1877.73,0
1876.77,-1
1875.80,0
1874.84,4
1873.88,9
1872.91,11
1871.95,12
1870.98,13
1870.02,11
1869.06,6
1868.09,2
1867.13,4
1866.16,8
1865.20,7
1864.23,3
1863.27,1
1862.31,4
1861.34,6
1860.38,6
1859.41,4
1858.45,3
1857.48,5
1856.52,5
1855.56,5
1854.59,5
1853.63,8
1852.66,10
1851.70,11
1850.73,10
1849.77,6
1848.81,2
1847.84,1
1846.88,1
1845.91,1
1844.95,1
1843.98,2
1843.02,4
1842.06,7
1841.09,9
1840.13,8
1839.16,5
1838.20,1
1837.24,0
1836.27,2
1835.31,4
1834.34,4
1833.38,3
1832.41,2
1831.45,0
1830.49,-2
1829.52,-4
1828.56,-4
1827.59,-0
1826.63,2
1825.66,0
1824.70,-3
1823.74,-1
1822.77,2
1821.81,1
1820.84,-3
1819.88,-4
1818.91,-1
1817.95,2
1816.99,-0
1816.02,-4
1815.06,-6
1814.09,-7
1813.13,-6
1812.17,-6
1811.20,-5
1810.24,-4
1809.27,-3
1808.31,-1
1807.34,1
1806.38,0
1805.42,-3
1804.45,-4
1803.49,-3
1802.52,-2
1801.56,-4
1800.59,-5
1799.63,-3
1798.67,0
1797.70,1
1796.74,0
1795.77,-1
1794.81,-4
1793.84,-6
1792.88,-6
1791.92,-5
1790.95,-6
1789.99,-6
1789.02,-7
1788.06,-8
1787.10,-8
1786.13,-8
1785.17,-7
1784.20,-5
1783.24,-4
1782.27,-5
1781.31,-8
1780.35,-9
1779.38,-8
1778.42,-8
1777.45,-7
1776.49,-5
1775.52,-5
1774.56,-5
1773.60,-7
1772.63,-7
1771.67,-5
1770.70,-2
1769.74,0
1768.77,-1
1767.81,-3
1766.85,-2
1765.88,-1
1764.92,-2
1763.95,-2
1762.99,-4
1762.03,-7
1761.06,-7
1760.10,-7
1759.13,-7
1758.17,-10
1757.20,-13
1756.24,-12
1755.28,-9
1754.31,-5
1753.35,-2
1752.38,-0
1751.42,-0
1750.45,-2
1749.49,-4
1748.53,-4
1747.56,-4
1746.60,-2
1745.63,-0
1744.67,3
1743.70,5
1742.74,5
1741.78,5
1740.81,2
1739.85,0
1738.88,-0
1737.92,1
1736.96,0
1735.99,-1
1735.03,-0
1734.06,1
1733.10,3
1732.13,2
1731.17,0
1730.21,-1
1729.24,0
1728.28,4
1727.31,7
1726.35,7
1725.38,0
1724.42,-7
1723.46,-8
1722.49,-5
1721.53,-3
1720.56,-1
1719.60,1
1718.63,1
1717.67,0
1716.71,0
1715.74,1
1714.78,0
1713.81,-1
1712.85,-2
1711.89,-6
1710.92,-7
1709.96,-5
1708.99,-3
1708.03,-4
1707.06,-7
1706.10,-7
1705.14,-7
1704.17,-6
1703.21,-4
1702.24,-4
1701.28,-4
1700.31,-4
1699.35,-3
1698.39,-3
1697.42,-2
1696.46,-3
1695.49,-5
1694.53,-7
1693.56,-7
1692.60,-5
1691.64,-3
1690.67,0
1689.71,3
1688.74,4
1687.78,4
1686.81,4
1685.85,6
1684.89,7
1683.92,7
1682.96,6
1681.99,4
1681.03,2
1680.07,3
1679.10,5
1678.14,8
1677.17,9
1676.21,9
1675.24,9
1674.28,9
1673.32,10
1672.35,10
1671.39,10
1670.42,11
1669.46,10
1668.49,6
1667.53,4
1666.57,6
1665.60,10
1664.64,12
1663.67,11
1662.71,7
1661.74,1
1660.78,-3
1659.82,1
1658.85,7
1657.89,8
1656.92,6
1655.96,4
1655.00,4
1654.03,4
1653.07,2
1652.10,2
1651.14,3
1650.17,6
1649.21,8
1648.25,10
1647.28,11
1646.32,10
1645.35,8
1644.39,8
1643.42,8
1642.46,6
1641.50,3
1640.53,1
1639.57,0
1638.60,-0
1637.64,-0
1636.67,-1
1635.71,0
1634.75,2
1633.78,3
1632.82,3
1631.85,1
1630.89,-2
1629.93,-8
1628.96,-8
1628.00,-5
1627.03,-5
1626.07,-6
1625.10,-4
1624.14,0
1623.18,3
1622.21,3
1621.25,0
1620.28,-2
1619.32,-2
1618.35,-1
1617.39,2
1616.43,7
1615.46,11
1614.50,15
1613.53,22
1612.57,29
1611.60,36
1610.64,45
