Created As Omnic File,PLAS 216
Raman Shift / cm-1,INT
3418.58,-5
3417.61,-3
3416.65,-3
3415.68,-4
3414.72,-3
3413.76,-6
3412.79,-7
3411.83,-10
3410.86,-16
3409.90,-17
3408.94,-11
3407.97,-7
3407.01,-7
3406.04,-10
3405.08,-11
3404.11,-8
3403.15,-2
3402.19,0
3401.22,-1
3400.26,-2
3399.29,-2
3398.33,-4
3397.36,-5
3396.40,-5
3395.44,-4
3394.47,-3
3393.51,-2
3392.54,-3
3391.58,-3
3390.61,-3
3389.65,-1
3388.69,-1
3387.72,-5
3386.76,-6
3385.79,-3
3384.83,-1
3383.87,-2
3382.90,-3
3381.94,-1
3380.97,-2
3380.01,-9
3379.04,-11
3378.08,-8
3377.12,-9
3376.15,-10
3375.19,-8
3374.22,-6
3373.26,-6
3372.29,-6
3371.33,-8
3370.37,-8
3369.40,-11
3368.44,-12
3367.47,-12
3366.51,-10
3365.54,-6
3364.58,-8
3363.62,-11
3362.65,-12
3361.69,-12
3360.72,-13
3359.76,-15
3358.80,-15
3357.83,-15
3356.87,-16
3355.90,-17
3354.94,-19
3353.97,-20
3353.01,-18
3352.05,-18
3351.08,-17
3350.12,-15
3349.15,-13
3348.19,-13
3347.22,-14
3346.26,-14
3345.30,-14
3344.33,-14
3343.37,-16
3342.40,-15
3341.44,-14
3340.47,-18
3339.51,-19
3338.55,-18
3337.58,-18
3336.62,-17
3335.65,-17
3334.69,-17
3333.73,-15
3332.76,-13
3331.80,-12
3330.83,-13
3329.87,-16
3328.90,-20
3327.94,-20
3326.98,-18
3326.01,-16
3325.05,-13
3324.08,-10
3323.12,-12
3322.15,-18
3321.19,-18
3320.23,-14
3319.26,-13
3318.30,-14
3317.33,-14
3316.37,-15
3315.40,-15
3314.44,-15
3313.48,-15
3312.51,-15
3311.55,-13
3310.58,-11
3309.62,-9
3308.66,-7
3307.69,-9
3306.73,-10
3305.76,-10
3304.80,-10
3303.83,-10
3302.87,-9
3301.91,-9
3300.94,-7
3299.98,-4
3299.01,-1
3298.05,-1
3297.08,-3
3296.12,-6
3295.16,-3
3294.19,3
3293.23,5
3292.26,5
3291.30,2
3290.33,-4
3289.37,-11
3288.41,-8
3287.44,-0
3286.48,-4
3285.51,-11
3284.55,-7
3283.59,0
3282.62,0
3281.66,-3
3280.69,-2
3279.73,1
3278.76,2
3277.80,0
3276.84,-3
3275.87,-5
3274.91,-3
3273.94,-2
3272.98,-2
3272.01,-3
3271.05,-2
3270.09,-1
3269.12,0
3268.16,3
3267.19,5
3266.23,2
3265.26,-1
3264.30,-3
3263.34,-2
3262.37,4
3261.41,8
3260.44,6
3259.48,5
3258.51,5
3257.55,4
3256.59,2
3255.62,0
3254.66,1
3253.69,1
3252.73,-0
3251.77,0
3250.80,1
3249.84,-3
3248.87,-7
3247.91,-4
3246.94,1
3245.98,2
3245.02,1
3244.05,2
3243.09,3
3242.12,5
3241.16,4
3240.19,-0
3239.23,-1
3238.27,1
3237.30,2
3236.34,1
3235.37,1
3234.41,6
3233.44,5
3232.48,3
3231.52,4
3230.55,6
3229.59,5
3228.62,2
3227.66,0
3226.70,-2
3225.73,-1
3224.77,1
3223.80,1
3222.84,0
3221.87,2
3220.91,3
3219.95,3
3218.98,4
3218.02,4
3217.05,2
3216.09,-1
3215.12,1
3214.16,5
3213.20,7
3212.23,7
3211.27,6
3210.30,6
3209.34,7
3208.37,8
3207.41,5
3206.45,1
3205.48,2
3204.52,3
3203.55,6
3202.59,7
3201.63,5
3200.66,4
3199.70,4
3198.73,2
3197.77,1
3196.80,-0
3195.84,-1
3194.88,2
3193.91,6
3192.95,7
3191.98,4
3191.02,2
3190.05,1
3189.09,2
3188.13,4
3187.16,6
3186.20,7
3185.23,7
3184.27,5
3183.30,2
3182.34,0
3181.38,3
3180.41,7
3179.45,9
3178.48,9
3177.52,7
3176.56,7
3175.59,10
3174.63,8
3173.66,2
3172.70,-1
3171.73,2
3170.77,6
3169.81,7
3168.84,8
3167.88,7
3166.91,5
3165.95,4
3164.98,5
3164.02,5
3163.06,4
3162.09,4
3161.13,5
3160.16,5
3159.20,3
3158.23,1
3157.27,3
3156.31,8
3155.34,12
3154.38,11
3153.41,3
3152.45,-5
3151.49,-7
3150.52,-4
3149.56,2
3148.59,2
3147.63,-1
3146.66,-1
3145.70,4
3144.74,6
3143.77,6
3142.81,5
3141.84,5
3140.88,6
3139.91,7
3138.95,4
3137.99,2
3137.02,3
3136.06,3
3135.09,1
3134.13,0
3133.16,2
3132.20,2
3131.24,-2
3130.27,-3
3129.31,1
3128.34,2
3127.38,-1
3126.42,-3
3125.45,-0
3124.49,2
3123.52,2
3122.56,2
3121.59,0
3120.63,-3
3119.67,-3
3118.70,-4
3117.74,-5
3116.77,-7
3115.81,-9
3114.84,-7
3113.88,-5
3112.92,-5
3111.95,-5
3110.99,-1
3110.02,-0
3109.06,-6
3108.09,-9
3107.13,-9
3106.17,-10
3105.20,-11
3104.24,-10
3103.27,-6
3102.31,-2
3101.34,-1
3100.38,1
3099.42,5
3098.45,6
3097.49,6
3096.52,9
3095.56,14
3094.60,20
3093.63,23
3092.67,24
3091.70,24
3090.74,27
3089.77,32
3088.81,40
3087.85,49
3086.88,54
3085.92,58
3084.95,61
3083.99,66
3083.02,72
3082.06,78
3081.10,84
3080.13,89
3079.17,91
3078.20,93
3077.24,94
3076.27,99
3075.31,106
3074.35,111
3073.38,111
3072.42,110
3071.45,112
3070.49,115
3069.53,119
3068.56,122
3067.60,126
3066.63,130
3065.67,136
3064.70,140
3063.74,143
3062.78,149
3061.81,155
3060.85,160
3059.88,165
3058.92,172
3057.95,182
3056.99,194
3056.03,205
3055.06,210
3054.10,215
3053.13,221
3052.17,229
3051.20,238
3050.24,244
3049.28,245
3048.31,246
3047.35,247
3046.38,251
3045.42,258
3044.46,262
3043.49,266
3042.53,267
3041.56,267
3040.60,272
3039.63,281
3038.67,287
3037.71,289
3036.74,295
3035.78,302
3034.81,304
3033.85,300
3032.88,305
3031.92,319
3030.96,331
3029.99,336
3029.03,341
3028.06,349
3027.10,360
3026.13,373
3025.17,387
3024.21,401
3023.24,411
3022.28,422
3021.31,435
3020.35,447
3019.39,453
3018.42,463
3017.46,478
3016.49,492
3015.53,504
3014.56,512
3013.60,520
3012.64,529
3011.67,543
3010.71,554
3009.74,558
3008.78,564
3007.81,581
3006.85,599
3005.89,613
3004.92,632
3003.96,654
3002.99,674
3002.03,691
3001.06,709
3000.10,728
2999.14,751
2998.17,781
2997.21,804
2996.24,821
2995.28,840
2994.32,863
2993.35,889
2992.39,915
2991.42,940
2990.46,968
2989.49,1000
2988.53,1032
2987.57,1063
2986.60,1090
2985.64,1117
2984.67,1147
2983.71,1178
2982.74,1213
2981.78,1251
2980.82,1292
2979.85,1330
2978.89,1368
2977.92,1409
2976.96,1453
2975.99,1507
2975.03,1567
2974.07,1626
2973.10,1686
2972.14,1749
2971.17,1814
2970.21,1886
2969.25,1967
2968.28,2055
2967.32,2148
2966.35,2239
2965.39,2327
2964.42,2412
2963.46,2499
2962.50,2590
2961.53,2685
2960.57,2775
2959.60,2865
2958.64,2957
2957.67,3045
2956.71,3127
2955.75,3207
2954.78,3283
2953.82,3352
2952.85,3418
2951.89,3491
2950.92,3574
2949.96,3667
2949.00,3770
2948.03,3884
2947.07,4014
2946.10,4171
2945.14,4356
2944.17,4570
2943.21,4811
2942.25,5068
2941.28,5325
2940.32,5586
2939.35,5846
2938.39,6082
2937.43,6288
2936.46,6469
2935.50,6624
2934.53,6737
2933.57,6816
2932.60,6865
2931.64,6882
2930.68,6879
2929.71,6864
2928.75,6841
2927.78,6812
2926.82,6782
2925.85,6743
2924.89,6703
2923.93,6666
2922.96,6636
2922.00,6614
2921.03,6601
2920.07,6593
2919.10,6591
2918.14,6601
2917.18,6625
2916.21,6652
2915.25,6666
2914.28,6680
2913.32,6723
2912.36,6786
2911.39,6853
2910.43,6923
2909.46,7001
2908.50,7088
2907.53,7175
2906.57,7257
2905.61,7336
2904.64,7413
2903.68,7488
2902.71,7572
2901.75,7656
2900.78,7723
2899.82,7764
2898.86,7801
2897.89,7853
2896.93,7902
2895.96,7919
2895.00,7922
2894.03,7952
2893.07,8002
2892.11,8060
2891.14,8142
2890.18,8264
2889.21,8420
2888.25,8627
2887.29,8925
2886.32,9355
2885.36,9950
2884.39,10727
2883.43,11609
2882.46,12525
2881.50,13325
2880.54,13687
2879.57,13620
2878.61,12892
2877.64,11826
2876.68,10693
2875.71,9688
2874.75,9003
2873.79,8525
2872.82,8205
2871.86,7989
2870.89,7822
2869.93,7706
2868.96,7618
2868.00,7561
2867.04,7514
2866.07,7484
2865.11,7467
2864.14,7472
2863.18,7509
2862.22,7560
2861.25,7614
2860.29,7687
2859.32,7795
2858.36,7931
2857.39,8086
2856.43,8258
2855.47,8452
2854.50,8673
2853.54,8915
2852.57,9158
2851.61,9396
2850.64,9608
2849.68,9792
2848.72,9909
2847.75,9919
2846.79,9819
2845.82,9596
2844.86,9248
2843.89,8759
2842.93,8178
2841.97,7536
2841.00,6864
2840.04,6177
2839.07,5517
2838.11,4899
2837.15,4330
2836.18,3821
2835.22,3366
2834.25,2962
2833.29,2611
2832.32,2314
2831.36,2063
2830.40,1847
2829.43,1660
2828.47,1498
2827.50,1360
2826.54,1244
2825.57,1140
2824.61,1042
2823.65,956
2822.68,882
2821.72,824
2820.75,778
2819.79,731
2818.82,678
2817.86,626
2816.90,583
2815.93,544
2814.97,510
2814.00,482
2813.04,455
2812.08,426
2811.11,397
2810.15,374
2809.18,359
2808.22,347
2807.25,335
2806.29,321
2805.33,304
2804.36,288
2803.40,273
2802.43,259
2801.47,246
2800.50,236
2799.54,229
2798.58,224
2797.61,219
2796.65,211
2795.68,199
2794.72,191
2793.75,188
2792.79,185
2791.83,179
2790.86,173
2789.90,169
2788.93,167
2787.97,166
2787.00,165
2786.04,164
2785.08,161
2784.11,160
2783.15,155
2782.18,144
2781.22,135
2780.26,135
2779.29,137
2778.33,138
2777.36,138
2776.40,138
2775.43,135
2774.47,132
2773.51,133
2772.54,139
2771.58,143
2770.61,143
2769.65,142
2768.68,147
2767.72,155
2766.76,159
2765.79,161
2764.83,168
2763.86,175
2762.90,179
2761.93,183
2760.97,192
2760.01,202
2759.04,207
2758.08,211
2757.11,215
2756.15,216
2755.19,217
2754.22,221
2753.26,228
2752.29,237
2751.33,244
2750.36,251
2749.40,259
2748.44,265
2747.47,268
2746.51,269
2745.54,276
2744.58,287
2743.61,298
2742.65,311
2741.69,327
2740.72,342
2739.76,356
2738.79,369
2737.83,387
2736.86,410
2735.90,436
2734.94,465
2733.97,494
2733.01,522
2732.04,549
2731.08,576
2730.12,605
2729.15,636
2728.19,670
2727.22,703
2726.26,729
2725.29,746
2724.33,761
2723.37,773
2722.40,782
2721.44,788
2720.47,781
2719.51,767
2718.54,759
2717.58,755
2716.62,747
2715.65,732
2714.69,711
2713.72,687
2712.76,662
2711.79,638
2710.83,618
2709.87,602
2708.90,584
2707.94,560
2706.97,537
2706.01,518
2705.05,493
2704.08,467
2703.12,448
2702.15,434
2701.19,418
2700.22,396
2699.26,376
2698.30,361
2697.33,351
2696.37,344
2695.40,336
2694.44,323
2693.47,310
2692.51,301
2691.55,296
2690.58,292
2689.62,289
2688.65,284
2687.69,276
2686.72,265
2685.76,258
2684.80,256
2683.83,254
2682.87,248
2681.90,240
2680.94,235
2679.98,233
2679.01,231
2678.05,231
2677.08,234
2676.12,236
2675.15,232
2674.19,224
2673.23,222
2672.26,224
2671.30,222
2670.33,220
2669.37,218
2668.40,215
2667.44,215
2666.48,218
2665.51,221
2664.55,225
2663.58,229
2662.62,234
2661.65,238
2660.69,241
2659.73,240
2658.76,235
2657.80,237
2656.83,243
2655.87,247
2654.91,250
2653.94,247
2652.98,243
2652.01,240
2651.05,237
2650.08,235
2649.12,232
2648.16,225
2647.19,216
2646.23,209
2645.26,204
2644.30,201
2643.33,200
2642.37,199
2641.41,193
2640.44,187
2639.48,184
2638.51,180
2637.55,173
2636.58,168
2635.62,165
2634.66,160
2633.69,154
2632.73,149
2631.76,149
2630.80,151
2629.83,154
2628.87,159
2627.91,169
2626.94,173
2625.98,164
2625.01,151
2624.05,146
2623.09,148
2622.12,156
2621.16,165
2620.19,165
2619.23,162
2618.26,161
2617.30,160
2616.34,159
2615.37,159
2614.41,160
2613.44,163
2612.48,164
2611.51,162
2610.55,157
2609.59,153
2608.62,154
2607.66,160
2606.69,158
2605.73,152
2604.76,148
2603.80,148
2602.84,149
2601.87,151
2600.91,149
2599.94,143
2598.98,138
2598.02,135
2597.05,131
2596.09,127
2595.12,126
2594.16,130
2593.19,133
2592.23,130
2591.27,127
2590.30,129
2589.34,132
2588.37,133
2587.41,133
2586.44,127
2585.48,118
2584.52,114
2583.55,109
2582.59,100
2581.62,94
2580.66,92
2579.69,91
2578.73,86
2577.77,77
2576.80,67
2575.84,61
2574.87,59
2573.91,60
2572.95,61
2571.98,57
2571.02,51
2570.05,47
2569.09,48
2568.12,50
2567.16,52
2566.20,47
2565.23,42
2564.27,41
2563.30,39
2562.34,32
2561.37,28
2560.41,32
2559.45,35
2558.48,31
2557.52,25
2556.55,23
2555.59,23
2554.62,22
2553.66,17
2552.70,12
2551.73,7
2550.77,6
2549.80,7
2548.84,3
2547.88,-4
2546.91,-6
2545.95,-5
2544.98,-2
2544.02,4
2543.05,6
2542.09,1
2541.13,-3
2540.16,-5
2539.20,-7
2538.23,-6
2537.27,-4
2536.30,-5
2535.34,-9
2534.38,-8
2533.41,-7
2532.45,-9
2531.48,-13
2530.52,-21
2529.55,-25
2528.59,-21
2527.63,-13
2526.66,-11
2525.70,-12
2524.73,-10
2523.77,-8
2522.81,-12
2521.84,-19
2520.88,-20
2519.91,-18
2518.95,-14
2517.98,-12
2517.02,-13
2516.06,-14
2515.09,-14
2514.13,-13
2513.16,-9
2512.20,-4
2511.23,-6
2510.27,-13
2509.31,-18
2508.34,-16
2507.38,-10
2506.41,-4
2505.45,-2
2504.48,-4
2503.52,-6
2502.56,-7
2501.59,-8
2500.63,-7
2499.66,-7
2498.70,-8
2497.74,-8
2496.77,-5
2495.81,-0
2494.84,-1
2493.88,-6
2492.91,-12
2491.95,-17
2490.99,-14
2490.02,-4
2489.06,2
2488.09,0
2487.13,-4
2486.16,-5
2485.20,-6
2484.24,-6
2483.27,-2
2482.31,5
2481.34,7
2480.38,1
2479.41,-4
2478.45,-2
2477.49,1
2476.52,1
2475.56,-2
2474.59,-8
2473.63,-13
2472.66,-10
2471.70,-5
2470.74,-4
2469.77,-4
2468.81,-3
2467.84,-1
2466.88,2
2465.92,4
2464.95,5
2463.99,6
2463.02,6
2462.06,3
2461.09,2
2460.13,8
2459.17,11
2458.20,7
2457.24,2
2456.27,3
2455.31,6
2454.34,12
2453.38,21
2452.42,28
2451.45,31
2450.49,27
2449.52,22
2448.56,23
2447.59,28
2446.63,31
2445.67,32
2444.70,36
2443.74,44
2442.77,54
2441.81,62
2440.85,66
2439.88,67
2438.92,68
2437.95,67
2436.99,67
2436.02,68
2435.06,68
2434.10,66
2433.13,62
2432.17,57
2431.20,52
2430.24,54
2429.27,57
2428.31,55
2427.35,50
2426.38,42
2425.42,33
2424.45,28
2423.49,28
2422.52,30
2421.56,32
2420.60,34
2419.63,32
2418.67,27
2417.70,20
2416.74,16
2415.78,14
2414.81,12
2413.85,9
2412.88,4
2411.92,-1
2410.95,-1
2409.99,4
2409.03,8
2408.06,9
2407.10,8
2406.13,3
2405.17,-0
2404.20,3
2403.24,9
2402.28,9
2401.31,3
2400.35,1
2399.38,7
2398.42,10
2397.45,6
2396.49,4
2395.53,6
2394.56,8
2393.60,5
2392.63,2
2391.67,-4
2390.71,-8
2389.74,-4
2388.78,5
2387.81,10
2386.85,12
2385.88,12
2384.92,10
2383.96,6
2382.99,-1
2382.03,-6
2381.06,-5
2380.10,-0
2379.13,4
2378.17,8
2377.21,9
2376.24,9
2375.28,11
2374.31,10
2373.35,6
2372.38,1
2371.42,-4
2370.46,-7
2369.49,-4
2368.53,0
2367.56,2
2366.60,2
2365.64,5
2364.67,6
2363.71,3
2362.74,-2
2361.78,-5
2360.81,-5
2359.85,-5
2358.89,-7
2357.92,-13
2356.96,-21
2355.99,-23
2355.03,-14
2354.06,-3
2353.10,-0
2352.14,-4
2351.17,-8
2350.21,-12
2349.24,-8
2348.28,-1
2347.31,2
2346.35,-1
2345.39,-8
2344.42,-14
2343.46,-16
2342.49,-13
2341.53,-11
2340.57,-15
2339.60,-16
2338.64,-10
2337.67,-4
2336.71,-5
2335.74,-11
2334.78,-12
2333.82,-12
2332.85,-11
2331.89,-8
2330.92,-5
2329.96,-1
2328.99,3
2328.03,6
2327.07,5
2326.10,2
2325.14,-1
2324.17,-2
2323.21,-5
2322.24,-11
2321.28,-17
2320.32,-16
2319.35,-12
2318.39,-9
2317.42,-7
2316.46,-5
2315.49,-4
2314.53,-3
2313.57,-3
2312.60,-1
2311.64,1
2310.67,0
2309.71,-3
2308.75,-4
2307.78,-3
2306.82,-3
2305.85,-6
2304.89,-6
2303.92,0
2302.96,7
2302.00,5
2301.03,-4
2300.07,-6
2299.10,-2
2298.14,5
2297.17,12
2296.21,14
2295.25,10
2294.28,6
2293.32,5
2292.35,8
2291.39,13
2290.42,14
2289.46,10
2288.50,5
2287.53,4
2286.57,7
2285.60,8
2284.64,8
2283.68,8
2282.71,7
2281.75,8
2280.78,11
2279.82,14
2278.85,15
2277.89,14
2276.93,12
2275.96,13
2275.00,17
2274.03,19
2273.07,15
2272.10,12
2271.14,15
2270.18,21
2269.21,22
2268.25,21
2267.28,19
2266.32,18
2265.35,17
2264.39,15
2263.43,15
2262.46,16
2261.50,18
2260.53,18
2259.57,21
2258.61,23
2257.64,20
2256.68,12
2255.71,6
2254.75,5
2253.78,9
2252.82,13
2251.86,16
2250.89,18
2249.93,22
2248.96,25
2248.00,26
2247.03,24
2246.07,21
2245.11,18
2244.14,12
2243.18,8
2242.21,10
2241.25,11
2240.28,12
2239.32,13
2238.36,17
2237.39,18
2236.43,14
2235.46,4
2234.50,-2
2233.54,1
2232.57,6
2231.61,8
2230.64,11
2229.68,17
2228.71,16
2227.75,10
2226.79,5
2225.82,2
2224.86,1
2223.89,3
2222.93,5
2221.96,5
2221.00,3
2220.04,5
2219.07,10
2218.11,8
2217.14,0
2216.18,-2
2215.21,3
2214.25,10
2213.29,13
2212.32,9
2211.36,4
2210.39,3
2209.43,4
2208.47,6
2207.50,6
2206.54,4
2205.57,3
2204.61,5
2203.64,12
2202.68,20
2201.72,25
2200.75,26
2199.79,26
2198.82,25
2197.86,23
2196.89,20
2195.93,18
2194.97,17
2194.00,20
2193.04,25
2192.07,31
2191.11,37
2190.14,40
2189.18,45
2188.22,51
2187.25,58
2186.29,66
2185.32,73
2184.36,73
2183.40,67
2182.43,63
2181.47,60
2180.50,58
2179.54,59
2178.57,60
2177.61,56
2176.65,52
2175.68,47
2174.72,41
2173.75,36
2172.79,31
2171.82,27
2170.86,25
2169.90,24
2168.93,22
2167.97,20
2167.00,16
2166.04,14
2165.07,14
2164.11,15
2163.15,14
2162.18,12
2161.22,12
2160.25,11
2159.29,12
2158.32,14
2157.36,15
2156.40,14
2155.43,11
2154.47,9
2153.50,5
2152.54,1
2151.58,-1
2150.61,-2
2149.65,-1
2148.68,5
2147.72,11
2146.75,8
2145.79,4
2144.83,5
2143.86,7
2142.90,6
2141.93,2
2140.97,-6
2140.00,-16
2139.04,-18
2138.08,-8
2137.11,0
2136.15,-1
2135.18,-6
2134.22,-9
2133.25,-8
2132.29,-1
2131.33,5
2130.36,4
2129.40,-3
2128.43,-8
2127.47,-6
2126.51,-5
2125.54,-8
2124.58,-9
2123.61,-5
2122.65,-1
2121.68,-2
2120.72,-4
2119.76,-2
2118.79,1
2117.83,3
2116.86,3
2115.90,1
2114.93,1
2113.97,-0
2113.01,-2
2112.04,-3
2111.08,-4
2110.11,-6
2109.15,-6
2108.18,-6
2107.22,-7
2106.26,-7
2105.29,-6
2104.33,-1
2103.36,2
2102.40,1
2101.44,0
2100.47,2
2099.51,4
2098.54,7
2097.58,9
2096.61,4
2095.65,-5
2094.69,-10
2093.72,-13
2092.76,-12
2091.79,-7
2090.83,-5
2089.86,-7
2088.90,-8
2087.94,-5
2086.97,-2
2086.01,-1
2085.04,-0
2084.08,0
2083.11,-1
2082.15,1
2081.19,6
2080.22,6
2079.26,5
2078.29,5
2077.33,7
2076.37,8
2075.40,9
2074.44,8
2073.47,7
2072.51,5
2071.54,3
2070.58,-0
2069.62,-3
2068.65,-4
2067.69,-3
2066.72,-4
2065.76,-3
2064.79,2
2063.83,9
2062.87,15
2061.90,19
2060.94,16
2059.97,11
2059.01,8
2058.04,7
2057.08,7
2056.12,6
2055.15,5
2054.19,4
2053.22,6
2052.26,3
2051.30,-2
2050.33,-6
2049.37,-9
2048.40,-3
2047.44,9
2046.47,13
2045.51,9
2044.55,5
2043.58,5
2042.62,7
2041.65,9
2040.69,11
2039.72,13
2038.76,13
2037.80,6
2036.83,-4
2035.87,-8
2034.90,-6
2033.94,-4
2032.97,-6
2032.01,-6
2031.05,-1
2030.08,2
2029.12,-3
2028.15,-10
2027.19,-11
2026.23,-8
2025.26,-5
2024.30,-4
2023.33,-4
2022.37,-4
2021.40,-5
2020.44,-7
2019.48,-10
2018.51,-14
2017.55,-18
2016.58,-17
2015.62,-14
2014.65,-14
2013.69,-15
2012.73,-13
2011.76,-6
2010.80,2
2009.83,10
2008.87,13
2007.90,11
2006.94,6
2005.98,-3
2005.01,-12
2004.05,-18
2003.08,-19
2002.12,-17
2001.15,-13
2000.19,-9
1999.23,-7
1998.26,-9
1997.30,-17
1996.33,-26
1995.37,-22
1994.41,-12
1993.44,-8
1992.48,-9
1991.51,-9
1990.55,-8
1989.58,-9
1988.62,-11
1987.66,-12
1986.69,-10
1985.73,-8
1984.76,-6
1983.80,-3
1982.83,0
1981.87,4
1980.91,6
1979.94,2
1978.98,-6
1978.01,-13
1977.05,-15
1976.08,-12
1975.12,-9
1974.16,-8
1973.19,-10
1972.23,-12
1971.26,-12
1970.30,-7
1969.34,1
1968.37,5
1967.41,6
1966.44,4
1965.48,-2
1964.51,-7
1963.55,-6
1962.59,-1
1961.62,1
1960.66,-1
1959.69,-7
1958.73,-9
1957.76,-9
1956.80,-11
1955.84,-12
1954.87,-7
1953.91,-1
1952.94,-2
1951.98,-4
1951.01,-6
1950.05,-6
1949.09,-7
1948.12,-7
1947.16,-8
1946.19,-9
1945.23,-9
1944.27,-8
1943.30,-6
1942.34,-3
1941.37,-2
1940.41,-1
1939.44,-0
1938.48,-3
1937.52,-10
1936.55,-15
1935.59,-12
1934.62,-7
1933.66,-7
1932.69,-12
1931.73,-14
1930.77,-12
1929.80,-12
1928.84,-16
1927.87,-19
1926.91,-17
1925.94,-13
1924.98,-14
1924.02,-17
1923.05,-17
1922.09,-15
1921.12,-14
1920.16,-14
1919.20,-15
1918.23,-18
1917.27,-20
1916.30,-19
1915.34,-19
1914.37,-21
1913.41,-23
1912.45,-26
1911.48,-28
1910.52,-26
1909.55,-22
1908.59,-19
1907.62,-20
1906.66,-23
1905.70,-25
1904.73,-25
1903.77,-21
1902.80,-17
1901.84,-15
1900.87,-18
1899.91,-23
1898.95,-23
1897.98,-19
1897.02,-15
1896.05,-12
1895.09,-9
1894.13,-8
1893.16,-12
1892.20,-17
1891.23,-18
1890.27,-13
1889.30,-10
1888.34,-13
1887.38,-15
1886.41,-11
1885.45,-4
1884.48,-1
1883.52,-6
1882.55,-15
1881.59,-20
1880.63,-19
1879.66,-13
1878.70,-7
1877.73,-9
1876.77,-17
1875.80,-18
1874.84,-10
1873.88,-2
1872.91,-2
1871.95,-4
1870.98,-5
1870.02,-7
1869.06,-7
1868.09,-2
1867.13,3
1866.16,5
1865.20,2
1864.23,-4
1863.27,-7
1862.31,-5
1861.34,-4
1860.38,-8
1859.41,-14
1858.45,-12
1857.48,-4
1856.52,-1
1855.56,-7
1854.59,-9
1853.63,0
1852.66,10
1851.70,7
1850.73,-4
1849.77,-10
1848.81,-10
1847.84,-7
1846.88,-2
1845.91,0
1844.95,-4
1843.98,-6
1843.02,-0
1842.06,7
1841.09,9
1840.13,2
1839.16,-9
1838.20,-19
1837.24,-21
1836.27,-16
1835.31,-11
1834.34,-8
1833.38,-8
1832.41,-8
1831.45,-9
1830.49,-10
1829.52,-11
1828.56,-11
1827.59,-10
1826.63,-9
1825.66,-4
1824.70,3
1823.74,5
1822.77,4
1821.81,0
1820.84,-6
1819.88,-10
1818.91,-8
1817.95,-5
1816.99,-5
1816.02,-6
1815.06,-4
1814.09,0
1813.13,2
1812.17,2
1811.20,3
1810.24,4
1809.27,5
1808.31,6
1807.34,9
1806.38,13
1805.42,13
1804.45,10
1803.49,4
1802.52,-0
1801.56,-1
1800.59,1
1799.63,5
1798.67,10
1797.70,13
1796.74,13
1795.77,14
1794.81,12
1793.84,11
1792.88,12
1791.92,14
1790.95,17
1789.99,19
1789.02,19
1788.06,16
1787.10,13
1786.13,10
1785.17,10
1784.20,13
1783.24,18
1782.27,24
1781.31,25
1780.35,22
1779.38,18
1778.42,15
1777.45,14
1776.49,17
1775.52,21
1774.56,23
1773.60,24
1772.63,22
1771.67,17
1770.70,13
1769.74,16
1768.77,23
1767.81,27
1766.85,23
1765.88,19
1764.92,21
1763.95,28
1762.99,28
1762.03,25
1761.06,24
1760.10,24
1759.13,24
1758.17,22
1757.20,16
1756.24,9
1755.28,6
1754.31,13
1753.35,27
1752.38,36
1751.42,36
1750.45,37
1749.49,49
1748.53,67
1747.56,83
1746.60,97
1745.63,114
1744.67,131
1743.70,152
1742.74,179
1741.78,203
1740.81,216
1739.85,224
1738.88,232
1737.92,240
1736.96,242
1735.99,242
1735.03,243
1734.06,245
1733.10,244
1732.13,234
1731.17,220
1730.21,210
1729.24,205
1728.28,195
1727.31,177
1726.35,154
1725.38,131
1724.42,106
