Created As Omnic File,PLAS 191
Raman Shift / cm-1,INT
3699.66,1
3698.36,1
3697.06,-0
3695.77,-0
3694.47,-0
3693.18,-0
3691.88,-0
3690.58,-1
3689.29,0
3687.99,-0
3686.69,0
3685.40,-0
3684.10,-0
3682.80,-0
3681.51,-0
3680.21,-1
3678.91,-1
3677.62,0
3676.32,-0
3675.02,0
3673.73,1
3672.43,-0
3671.14,1
3669.84,0
3668.54,-0
3667.25,-0
3665.95,0
3664.65,-0
3663.36,1
3662.06,0
3660.76,-0
3659.47,1
3658.17,1
3656.87,-0
3655.58,1
3654.28,-0
3652.98,0
3651.69,1
3650.39,-0
3649.10,-0
3647.80,0
3646.50,0
3645.21,0
3643.91,0
3642.61,1
3641.32,0
3640.02,1
3638.72,0
3637.43,-0
3636.13,0
3634.83,-0
3633.54,0
3632.24,0
3630.94,-0
3629.65,1
3628.35,-0
3627.06,1
3625.76,1
3624.46,0
3623.17,1
3621.87,1
3620.57,0
3619.28,1
3617.98,-0
3616.68,0
3615.39,1
3614.09,1
3612.79,1
3611.50,1
3610.20,1
3608.90,0
3607.61,0
3606.31,0
3605.02,1
3603.72,1
3602.42,1
3601.13,0
3599.83,0
3598.53,1
3597.24,1
3595.94,0
3594.64,1
3593.35,0
3592.05,1
3590.75,-0
3589.46,0
3588.16,0
3586.87,0
3585.57,1
3584.27,1
3582.98,1
3581.68,3
3580.38,4
3579.09,4
3577.79,4
3576.49,3
3575.20,2
3573.90,1
3572.60,1
3571.31,1
3570.01,0
3568.71,-0
3567.42,0
3566.12,1
3564.83,0
3563.53,1
3562.23,0
3560.94,0
3559.64,0
3558.34,0
3557.05,0
3555.75,0
3554.45,-0
3553.16,0
3551.86,0
3550.56,-0
3549.27,-0
3547.97,0
3546.67,-0
3545.38,1
3544.08,0
3542.79,1
3541.49,1
3540.19,1
3538.90,0
3537.60,0
3536.30,-0
3535.01,1
3533.71,0
3532.41,1
3531.12,1
3529.82,0
3528.52,1
3527.23,0
3525.93,1
3524.63,0
3523.34,1
3522.04,1
3520.75,0
3519.45,0
3518.15,0
3516.86,1
3515.56,1
3514.26,0
3512.97,1
3511.67,1
3510.37,0
3509.08,0
3507.78,1
3506.48,-0
3505.19,1
3503.89,1
3502.59,-0
3501.30,0
3500.00,1
3498.71,0
3497.41,1
3496.11,1
3494.82,0
3493.52,-0
3492.22,1
3490.93,0
3489.63,1
3488.33,-0
3487.04,0
3485.74,0
3484.44,0
3483.15,0
3481.85,1
3480.55,0
3479.26,1
3477.96,-1
3476.67,0
3475.37,0
3474.07,0
3472.78,0
3471.48,-0
3470.18,-0
3468.89,-0
3467.59,0
3466.29,0
3465.00,0
3463.70,1
3462.40,-1
3461.11,-1
3459.81,-0
3458.51,0
3457.22,0
3455.92,0
3454.63,0
3453.33,0
3452.03,-1
3450.74,0
3449.44,-1
3448.14,1
3446.85,1
3445.55,1
3444.25,-0
3442.96,-0
3441.66,0
3440.36,0
3439.07,-0
3437.77,-1
3436.47,0
3435.18,-0
3433.88,0
3432.59,0
3431.29,0
3429.99,-0
3428.70,1
3427.40,-1
3426.10,0
3424.81,1
3423.51,-1
3422.21,1
3420.92,-0
3419.62,1
3418.32,0
3417.03,1
3415.73,0
3414.43,0
3413.14,-0
3411.84,0
3410.55,0
3409.25,0
3407.95,-0
3406.66,1
3405.36,-0
3404.06,0
3402.77,0
3401.47,1
3400.17,0
3398.88,0
3397.58,-0
3396.28,-0
3394.99,0
3393.69,1
3392.39,1
3391.10,-0
3389.80,1
3388.51,0
3387.21,-0
3385.91,0
3384.62,0
3383.32,1
3382.02,1
3380.73,1
3379.43,0
3378.13,-0
3376.84,0
3375.54,-1
3374.24,1
3372.95,0
3371.65,0
3370.35,1
3369.06,1
3367.76,0
3366.47,0
3365.17,-0
3363.87,-0
3362.58,1
3361.28,1
3359.98,0
3358.69,0
3357.39,-0
3356.09,0
3354.80,0
3353.50,-1
3352.20,0
3350.91,1
3349.61,1
3348.31,0
3347.02,0
3345.72,0
3344.43,0
3343.13,1
3341.83,0
3340.54,-0
3339.24,1
3337.94,0
3336.65,1
3335.35,-0
3334.05,-1
3332.76,0
3331.46,1
3330.16,1
3328.87,2
3327.57,-0
3326.27,0
3324.98,0
3323.68,1
3322.39,0
3321.09,1
3319.79,1
3318.50,1
3317.20,1
3315.90,1
3314.61,-0
3313.31,0
3312.01,1
3310.72,1
3309.42,1
3308.12,1
3306.83,1
3305.53,0
3304.24,2
3302.94,-0
3301.64,1
3300.35,1
3299.05,1
3297.75,1
3296.46,2
3295.16,1
3293.86,1
3292.57,2
3291.27,1
3289.97,0
3288.68,2
3287.38,1
3286.08,1
3284.79,1
3283.49,1
3282.20,1
3280.90,2
3279.60,2
3278.31,0
3277.01,3
3275.71,1
3274.42,2
3273.12,2
3271.82,2
3270.53,2
3269.23,1
3267.93,1
3266.64,2
3265.34,1
3264.04,1
3262.75,2
3261.45,1
3260.16,2
3258.86,1
3257.56,3
3256.27,1
3254.97,2
3253.67,2
3252.38,2
3251.08,2
3249.78,2
3248.49,2
3247.19,2
3245.89,2
3244.60,2
3243.30,2
3242.00,2
3240.71,2
3239.41,3
3238.12,3
3236.82,2
3235.52,3
3234.23,2
3232.93,1
3231.63,2
3230.34,1
3229.04,2
3227.74,2
3226.45,2
3225.15,2
3223.85,3
3222.56,2
3221.26,1
3219.96,3
3218.67,2
3217.37,2
3216.08,3
3214.78,2
3213.48,2
3212.19,2
3210.89,0
3209.59,2
3208.30,2
3207.00,2
3205.70,2
3204.41,2
3203.11,2
3201.81,1
3200.52,1
3199.22,2
3197.92,2
3196.63,2
3195.33,1
3194.04,2
3192.74,3
3191.44,1
3190.15,2
3188.85,1
3187.55,1
3186.26,1
3184.96,1
3183.66,1
3182.37,2
3181.07,2
3179.77,2
3178.48,0
3177.18,1
3175.88,1
3174.59,2
3173.29,1
3172.00,0
3170.70,1
3169.40,2
3168.11,0
3166.81,1
3165.51,-0
3164.22,0
3162.92,1
3161.62,0
3160.33,0
3159.03,1
3157.73,1
3156.44,0
3155.14,2
3153.84,-1
3152.55,1
3151.25,0
3149.96,1
3148.66,-1
3147.36,-1
3146.07,0
3144.77,-1
3143.47,-0
3142.18,0
3140.88,1
3139.58,0
3138.29,1
3136.99,0
3135.69,-0
3134.40,-0
3133.10,1
3131.80,-0
3130.51,-0
3129.21,1
3127.92,2
3126.62,0
3125.32,1
3124.03,2
3122.73,2
3121.43,1
3120.14,1
3118.84,0
3117.54,1
3116.25,1
3114.95,-0
3113.65,0
3112.36,1
3111.06,1
3109.76,2
3108.47,1
3107.17,2
3105.88,1
3104.58,2
3103.28,2
3101.99,2
3100.69,2
3099.39,1
3098.10,2
3096.80,2
3095.50,3
3094.21,2
3092.91,3
3091.61,3
3090.32,3
3089.02,4
3087.72,2
3086.43,3
3085.13,2
3083.84,5
3082.54,3
3081.24,4
3079.95,1
3078.65,4
3077.35,5
3076.06,6
3074.76,6
3073.46,5
3072.17,5
3070.87,6
3069.57,8
3068.28,6
3066.98,7
3065.68,10
3064.39,9
3063.09,7
3061.80,10
3060.50,8
3059.20,8
3057.91,9
3056.61,7
3055.31,8
3054.02,8
3052.72,6
3051.42,5
3050.13,6
3048.83,3
3047.53,4
3046.24,5
3044.94,4
3043.65,4
3042.35,5
3041.05,3
3039.76,2
3038.46,4
3037.16,4
3035.87,3
3034.57,4
3033.27,3
3031.98,4
3030.68,4
3029.38,2
3028.09,3
3026.79,1
3025.49,2
3024.20,3
3022.90,3
3021.61,3
3020.31,2
3019.01,2
3017.72,2
3016.42,2
3015.12,1
3013.83,2
3012.53,1
3011.23,2
3009.94,2
3008.64,1
3007.34,2
3006.05,2
3004.75,1
3003.45,4
3002.16,1
3000.86,2
2999.57,1
2998.27,2
2996.97,2
2995.68,1
2994.38,2
2993.08,1
2991.79,1
2990.49,6
2989.19,3
2987.90,4
2986.60,3
2985.30,1
2984.01,2
2982.71,2
2981.41,1
2980.12,0
2978.82,1
2977.53,2
2976.23,0
2974.93,1
2973.64,-0
2972.34,-0
2971.04,1
2969.75,-1
2968.45,2
2967.15,1
2965.86,0
2964.56,-0
2963.26,0
2961.97,-0
2960.67,-1
2959.37,1
2958.08,0
2956.78,-1
2955.49,-1
2954.19,-1
2952.89,-1
2951.60,-1
2950.30,-3
2949.00,-1
2947.71,-1
2946.41,-2
2945.11,-3
2943.82,-2
2942.52,-2
2941.22,-2
2939.93,0
2938.63,-1
2937.33,-2
2936.04,0
2934.74,-1
2933.45,-2
2932.15,-1
2930.85,-1
2929.56,-3
2928.26,-4
2926.96,-3
2925.67,-4
2924.37,-4
2923.07,-2
2921.78,-2
2920.48,-2
2919.18,-1
2917.89,-1
2916.59,-1
2915.29,-1
2914.00,0
2912.70,-1
2911.41,-1
2910.11,-5
2908.81,-2
2907.52,-0
2906.22,-0
2904.92,-4
2903.63,-1
2902.33,-3
2901.03,-3
2899.74,-2
2898.44,-0
2897.14,-1
2895.85,-4
2894.55,-2
2893.25,-1
2891.96,0
2890.66,2
2889.37,-2
2888.07,2
2886.77,0
2885.48,-0
2884.18,3
2882.88,-2
2881.59,1
2880.29,1
2878.99,-1
2877.70,-1
2876.40,1
2875.10,-0
2873.81,2
2872.51,-1
2871.21,-0
2869.92,1
2868.62,-1
2867.33,-2
2866.03,2
2864.73,-2
2863.44,-1
2862.14,-2
2860.84,2
2859.55,-1
2858.25,-1
2856.95,-1
2855.66,-1
2854.36,-1
2853.06,1
2851.77,2
2850.47,3
2849.17,-1
2847.88,0
2846.58,1
2845.29,0
2843.99,2
2842.69,2
2841.40,1
2840.10,2
2838.80,3
2837.51,-0
2836.21,1
2834.91,3
2833.62,2
2832.32,-2
2831.02,-0
2829.73,2
2828.43,1
2827.13,3
2825.84,4
2824.54,5
2823.25,4
2821.95,3
2820.65,2
2819.36,4
2818.06,4
2816.76,2
2815.47,2
2814.17,1
2812.87,2
2811.58,3
2810.28,3
2808.98,3
2807.69,-0
2806.39,3
2805.09,5
2803.80,3
2802.50,1
2801.21,1
2799.91,4
2798.61,5
2797.32,4
2796.02,6
2794.72,6
2793.43,5
2792.13,6
2790.83,5
2789.54,4
2788.24,4
2786.94,5
2785.65,4
2784.35,6
2783.06,4
2781.76,4
2780.46,7
2779.17,4
2777.87,6
2776.57,5
2775.28,6
2773.98,6
2772.68,5
2771.39,4
2770.09,2
2768.79,3
2767.50,5
2766.20,5
2764.90,2
2763.61,3
2762.31,4
2761.02,5
2759.72,3
2758.42,4
2757.13,6
2755.83,5
2754.53,4
2753.24,4
2751.94,6
2750.64,2
2749.35,2
2748.05,5
2746.75,6
2745.46,4
2744.16,3
2742.86,3
2741.57,3
2740.27,4
2738.98,-1
2737.68,1
2736.38,1
2735.09,3
2733.79,2
2732.49,2
2731.20,2
2729.90,3
2728.60,-0
2727.31,3
2726.01,-1
2724.71,2
2723.42,2
2722.12,3
2720.82,2
2719.53,1
2718.23,4
2716.94,2
2715.64,3
2714.34,-0
2713.05,-1
2711.75,-3
2710.45,1
2709.16,2
2707.86,-0
2706.56,2
2705.27,2
2703.97,-2
2702.67,1
2701.38,2
2700.08,5
2698.78,1
2697.49,-1
2696.19,0
2694.90,0
2693.60,2
2692.30,2
2691.01,-3
2689.71,-1
2688.41,0
2687.12,0
2685.82,-2
2684.52,0
2683.23,-3
2681.93,-6
2680.63,-2
2679.34,-2
2678.04,0
2676.74,-2
2675.45,-1
2674.15,-4
2672.86,-2
2671.56,-1
2670.26,1
2668.97,-1
2667.67,0
2666.37,-0
2665.08,-2
2663.78,-4
2662.48,-0
2661.19,-2
2659.89,-5
2658.59,-2
2657.30,-1
2656.00,1
2654.70,-3
2653.41,-3
2652.11,-2
2650.82,-0
2649.52,-0
2648.22,2
2646.93,-2
2645.63,-3
2644.33,-3
2643.04,-4
2641.74,-5
2640.44,1
2639.15,-2
2637.85,-2
2636.55,-2
2635.26,-2
2633.96,-3
2632.66,1
2631.37,1
2630.07,1
2628.78,0
2627.48,-1
2626.18,1
2624.89,-1
2623.59,4
2622.29,1
2621.00,0
2619.70,3
2618.40,2
2617.11,3
2615.81,5
2614.51,2
2613.22,4
2611.92,5
2610.62,4
2609.33,2
2608.03,1
2606.74,7
2605.44,3
2604.14,7
2602.85,4
2601.55,4
2600.25,7
2598.96,7
2597.66,9
2596.36,8
2595.07,7
2593.77,9
2592.47,10
2591.18,5
2589.88,6
2588.58,11
2587.29,13
2585.99,9
2584.70,9
2583.40,14
2582.10,12
2580.81,14
2579.51,12
2578.21,12
2576.92,11
2575.62,12
2574.32,14
2573.03,11
2571.73,13
2570.43,13
2569.14,16
2567.84,14
2566.54,14
2565.25,15
2563.95,14
2562.66,18
2561.36,16
2560.06,17
2558.77,15
2557.47,11
2556.17,15
2554.88,19
2553.58,23
2552.28,15
2550.99,18
2549.69,16
2548.39,20
2547.10,21
2545.80,21
2544.50,18
2543.21,17
2541.91,15
2540.62,19
2539.32,19
2538.02,16
2536.73,18
2535.43,19
2534.13,17
2532.84,18
2531.54,14
2530.24,19
2528.95,16
2527.65,20
2526.35,21
2525.06,18
2523.76,16
2522.46,17
2521.17,19
2519.87,20
2518.58,21
2517.28,18
2515.98,15
2514.69,19
2513.39,11
2512.09,13
2510.80,21
2509.50,18
2508.20,18
2506.91,22
2505.61,20
2504.31,14
2503.02,14
2501.72,18
2500.43,14
2499.13,16
2497.83,15
2496.54,19
2495.24,23
2493.94,18
2492.65,15
2491.35,16
2490.05,19
2488.76,16
2487.46,14
2486.16,20
2484.87,18
2483.57,18
2482.27,21
2480.98,16
2479.68,14
2478.39,17
2477.09,14
2475.79,18
2474.50,19
2473.20,18
2471.90,18
2470.61,17
2469.31,15
2468.01,15
2466.72,19
2465.42,12
2464.12,10
2462.83,10
2461.53,11
2460.23,12
2458.94,9
2457.64,12
2456.35,13
2455.05,11
2453.75,8
2452.46,10
2451.16,9
2449.86,16
2448.57,11
2447.27,10
2445.97,15
2444.68,12
2443.38,14
2442.08,14
2440.79,14
2439.49,6
2438.19,9
2436.90,9
2435.60,11
2434.31,13
2433.01,9
2431.71,13
2430.42,8
2429.12,13
2427.82,6
2426.53,7
2425.23,6
2423.93,8
2422.64,6
2421.34,3
2420.04,6
2418.75,5
2417.45,3
2416.15,7
2414.86,0
2413.56,3
2412.27,1
2410.97,-0
2409.67,-0
2408.38,0
2407.08,-2
2405.78,-2
2404.49,1
2403.19,-2
2401.89,-3
2400.60,-2
2399.30,0
2398.00,-1
2396.71,1
2395.41,5
2394.11,2
2392.82,3
2391.52,-1
2390.23,-1
2388.93,6
2387.63,2
2386.34,1
2385.04,3
2383.74,1
2382.45,1
2381.15,2
2379.85,3
2378.56,1
2377.26,2
2375.96,-0
2374.67,-0
2373.37,3
2372.07,1
2370.78,-0
2369.48,2
2368.19,2
2366.89,1
2365.59,4
2364.30,3
2363.00,-0
2361.70,1
2360.41,2
2359.11,-3
2357.81,-3
2356.52,7
2355.22,3
2353.92,10
2352.63,8
2351.33,1
2350.03,7
2348.74,8
2347.44,3
2346.15,1
2344.85,-4
2343.55,-5
2342.26,-5
2340.96,5
2339.66,-1
2338.37,-6
2337.07,-7
2335.77,-9
2334.48,-1
2333.18,-8
2331.88,-4
2330.59,1
2329.29,-9
2327.99,-7
2326.70,-9
2325.40,0
2324.11,-15
2322.81,-5
2321.51,-6
2320.22,-12
2318.92,-4
2317.62,-2
2316.33,-3
2315.03,-5
2313.73,-14
2312.44,-7
2311.14,-2
2309.84,-1
2308.55,-5
2307.25,-5
2305.95,-4
2304.66,-8
2303.36,-10
2302.07,-2
2300.77,-9
2299.47,-7
2298.18,-0
2296.88,-9
2295.58,-1
2294.29,-3
2292.99,-7
2291.69,-9
2290.40,-8
2289.10,-11
2287.80,-10
2286.51,-13
2285.21,-11
2283.91,-12
2282.62,-8
2281.32,-14
2280.03,-20
2278.73,-9
2277.43,-15
2276.14,-14
2274.84,-15
2273.54,-19
2272.25,-15
2270.95,-11
2269.65,-19
2268.36,-20
2267.06,-19
2265.76,-20
2264.47,-16
2263.17,-29
2261.87,-29
2260.58,-24
2259.28,-24
2257.99,-21
2256.69,-27
2255.39,-28
2254.10,-31
2252.80,-29
2251.50,-26
2250.21,-21
2248.91,-21
2247.61,-18
2246.32,-21
2245.02,-21
2243.72,-22
2242.43,-14
2241.13,-20
2239.84,-19
2238.54,-25
2237.24,-23
2235.95,-27
2234.65,-17
2233.35,-19
2232.06,-20
2230.76,-17
2229.46,-18
2228.17,-22
2226.87,-22
2225.57,-15
2224.28,-19
2222.98,-16
2221.68,-10
2220.39,-18
2219.09,-20
2217.80,-13
2216.50,-13
2215.20,-11
2213.91,-9
2212.61,-9
2211.31,-7
2210.02,-7
2208.72,-14
2207.42,-17
2206.13,-21
2204.83,-10
2203.53,-7
2202.24,-2
2200.94,-5
2199.64,-9
2198.35,-3
2197.05,-5
2195.76,-17
2194.46,-12
2193.16,-14
2191.87,-20
2190.57,-18
2189.27,-19
2187.98,-25
2186.68,-19
2185.38,-17
2184.09,-22
2182.79,-13
2181.49,-18
2180.20,-23
2178.90,-18
2177.60,-14
2176.31,-16
2175.01,-14
2173.72,-11
2172.42,-17
2171.12,-18
2169.83,-12
2168.53,-9
2167.23,-5
2165.94,-8
2164.64,-17
2163.34,-10
2162.05,-8
2160.75,-8
2159.45,-2
2158.16,-4
2156.86,-5
2155.56,-5
2154.27,-19
2152.97,-15
2151.68,-3
2150.38,-14
2149.08,-12
2147.79,8
2146.49,-0
2145.19,-15
2143.90,0
2142.60,-8
2141.30,3
2140.01,11
2138.71,-2
2137.41,8
2136.12,17
2134.82,15
2133.52,15
2132.23,15
2130.93,22
2129.64,9
2128.34,15
2127.04,8
2125.75,8
2124.45,17
2123.15,21
2121.86,30
2120.56,20
2119.26,24
2117.97,20
2116.67,15
2115.37,15
2114.08,6
2112.78,11
2111.48,5
2110.19,12
2108.89,11
2107.60,-2
2106.30,-2
2105.00,11
2103.71,3
2102.41,13
2101.11,8
2099.82,5
2098.52,19
2097.22,12
2095.93,12
2094.63,7
2093.33,23
2092.04,10
2090.74,8
2089.44,7
2088.15,11
2086.85,12
2085.56,6
2084.26,0
2082.96,5
2081.67,9
2080.37,8
2079.07,5
2077.78,-6
2076.48,5
2075.18,1
2073.89,-9
2072.59,-8
2071.29,-1
2070.00,3
2068.70,6
2067.40,2
2066.11,-1
2064.81,-4
2063.52,5
2062.22,2
2060.92,0
2059.63,2
2058.33,6
2057.03,12
2055.74,7
2054.44,5
2053.14,11
2051.85,17
2050.55,2
2049.25,9
2047.96,2
2046.66,18
2045.36,16
2044.07,22
2042.77,22
2041.48,26
2040.18,27
2038.88,28
2037.59,28
2036.29,12
2034.99,14
2033.70,18
2032.40,7
2031.10,-8
2029.81,9
2028.51,23
2027.21,17
2025.92,20
2024.62,21
2023.32,23
2022.03,22
2020.73,4
2019.44,22
2018.14,24
2016.84,16
2015.55,23
2014.25,13
2012.95,21
2011.66,20
2010.36,8
2009.06,11
2007.77,11
2006.47,6
2005.17,2
2003.88,0
2002.58,-5
2001.28,-4
1999.99,-0
1998.69,-1
1997.40,0
1996.10,2
1994.80,-3
1993.51,-6
1992.21,4
1990.91,5
1989.62,-4
1988.32,-23
1987.02,-9
1985.73,-4
1984.43,10
1983.13,-1
1981.84,-11
1980.54,-21
1979.24,3
1977.95,5
1976.65,-11
1975.36,14
1974.06,1
1972.76,4
1971.47,0
1970.17,-2
1968.87,-6
1967.58,9
1966.28,-7
1964.98,2
1963.69,-3
1962.39,-11
1961.09,-9
1959.80,-16
1958.50,-1
1957.21,-1
1955.91,5
1954.61,10
1953.32,11
1952.02,7
1950.72,0
1949.43,2
1948.13,5
1946.83,13
1945.54,10
1944.24,11
1942.94,19
1941.65,13
1940.35,24
1939.05,25
1937.76,24
1936.46,14
1935.17,16
1933.87,8
1932.57,19
1931.28,8
1929.98,-2
1928.68,8
1927.39,4
1926.09,-8
1924.79,21
1923.50,2
1922.20,12
1920.90,7
1919.61,-27
1918.31,-22
1917.01,-4
1915.72,-21
1914.42,-12
1913.13,10
1911.83,-1
1910.53,-11
1909.24,-5
1907.94,-7
1906.64,-6
1905.35,5
1904.05,8
1902.75,15
1901.46,17
1900.16,25
1898.86,9
1897.57,12
1896.27,3
1894.97,6
1893.68,4
1892.38,-11
1891.09,-6
1889.79,5
1888.49,-7
1887.20,2
1885.90,5
1884.60,5
1883.31,11
1882.01,14
1880.71,14
1879.42,18
1878.12,14
1876.82,-6
1875.53,0
1874.23,12
1872.93,2
1871.64,5
1870.34,15
1869.05,-0
1867.75,8
1866.45,6
1865.16,-2
1863.86,-13
1862.56,4
1861.27,14
1859.97,6
1858.67,8
1857.38,16
1856.08,9
1854.78,8
1853.49,12
1852.19,6
1850.89,12
1849.60,5
1848.30,16
1847.01,17
1845.71,-2
1844.41,5
1843.12,1
1841.82,-4
1840.52,5
1839.23,0
1837.93,8
1836.63,-4
1835.34,4
1834.04,-4
1832.74,-11
1831.45,5
1830.15,10
1828.85,-1
1827.56,0
1826.26,7
1824.97,-8
1823.67,-17
1822.37,-5
1821.08,-18
1819.78,0
1818.48,-3
1817.19,-3
1815.89,11
1814.59,-7
1813.30,2
1812.00,-17
1810.70,0
1809.41,6
1808.11,3
1806.81,-1
1805.52,-14
1804.22,-21
1802.93,-14
1801.63,-3
1800.33,-11
1799.04,-1
1797.74,17
1796.44,-6
1795.15,4
1793.85,5
1792.55,-7
1791.26,0
1789.96,-9
1788.66,-7
1787.37,3
1786.07,-1
1784.77,-3
1783.48,3
1782.18,2
1780.89,5
1779.59,7
1778.29,-6
1777.00,15
1775.70,-4
1774.40,1
1773.11,-1
1771.81,-1
1770.51,5
1769.22,7
1767.92,0
1766.62,-2
1765.33,-6
1764.03,-13
1762.73,-20
1761.44,-9
1760.14,12
1758.85,9
1757.55,-11
1756.25,6
1754.96,2
1753.66,-2
1752.36,7
1751.07,17
1749.77,-1
1748.47,-3
1747.18,3
1745.88,-4
1744.58,-7
1743.29,-4
1741.99,-2
1740.69,-4
1739.40,-9
1738.10,-23
1736.81,-4
1735.51,-17
1734.21,0
1732.92,-2
1731.62,-4
1730.32,4
1729.03,1
1727.73,-1
1726.43,3
1725.14,-10
1723.84,-13
1722.54,9
1721.25,-1
1719.95,6
1718.65,3
1717.36,0
1716.06,16
1714.77,11
1713.47,-5
1712.17,-24
1710.88,-19
1709.58,-2
1708.28,-1
1706.99,11
1705.69,3
1704.39,15
1703.10,19
1701.80,35
1700.50,26
1699.21,31
1697.91,9
1696.62,-0
1695.32,6
1694.02,12
1692.73,13
1691.43,7
1690.13,4
1688.84,13
1687.54,36
1686.24,12
1684.95,18
1683.65,24
1682.35,14
1681.06,17
1679.76,9
1678.46,10
1677.17,16
1675.87,14
1674.58,38
1673.28,33
1671.98,25
1670.69,34
1669.39,29
1668.09,49
1666.80,17
1665.50,18
1664.20,32
1662.91,24
1661.61,15
1660.31,17
1659.02,29
1657.72,32
1656.42,22
1655.13,19
1653.83,16
1652.54,21
1651.24,15
1649.94,11
1648.65,15
1647.35,26
1646.05,42
1644.76,55
1643.46,61
1642.16,109
1640.87,70
1639.57,77
1638.27,69
1636.98,59
1635.68,53
1634.38,32
1633.09,7
1631.79,1
1630.50,11
1629.20,2
1627.90,-2
1626.61,16
1625.31,-16
1624.01,1
1622.72,33
1621.42,37
1620.12,38
1618.83,50
1617.53,57
1616.23,74
1614.94,82
1613.64,99
1612.34,146
1611.05,187
1609.75,215
1608.46,240
1607.16,282
1605.86,332
1604.57,362
1603.27,370
1601.97,382
1600.68,406
1599.38,426
1598.08,394
1596.79,424
1595.49,452
1594.19,487
1592.90,511
1591.60,521
1590.30,546
1589.01,568
1587.71,557
1586.42,485
1585.12,472
1583.82,449
1582.53,434
1581.23,390
1579.93,345
1578.64,314
1577.34,284
1576.04,271
1574.75,226
1573.45,242
1572.15,201
1570.86,208
1569.56,193
1568.26,152
1566.97,125
1565.67,120
1564.38,109
1563.08,89
1561.78,94
1560.49,51
1559.19,41
1557.89,64
1556.60,54
1555.30,32
1554.00,18
1552.71,-1
1551.41,-17
1550.11,11
1548.82,3
1547.52,0
1546.22,-7
1544.93,-15
1543.63,-18
1542.34,-17
1541.04,-15
1539.74,-12
1538.45,-7
1537.15,-6
1535.85,0
1534.56,1
1533.26,-12
1531.96,7
1530.67,16
1529.37,4
1528.07,3
1526.78,-0
1525.48,-13
1524.18,2
1522.89,-3
1521.59,11
1520.30,7
1519.00,5
1517.70,8
1516.41,-3
1515.11,4
1513.81,4
1512.52,19
1511.22,28
1509.92,27
1508.63,31
1507.33,37
1506.03,22
1504.74,1
1503.44,22
1502.14,20
1500.85,31
1499.55,14
1498.26,43
1496.96,40
1495.66,26
1494.37,29
1493.07,34
1491.77,56
1490.48,60
1489.18,10
1487.88,9
1486.59,30
1485.29,46
1483.99,16
1482.70,-12
1481.40,37
1480.10,26
1478.81,-7
1477.51,0
1476.22,-22
1474.92,-23
1473.62,-18
1472.33,-3
1471.03,22
1469.73,-22
1468.44,-22
1467.14,-24
1465.84,7
1464.55,43
1463.25,38
1461.95,10
1460.66,0
1459.36,6
1458.06,-6
1456.77,9
1455.47,-5
1454.18,16
1452.88,19
1451.58,12
1450.29,21
1448.99,15
1447.69,-18
1446.40,-17
1445.10,7
1443.80,40
1442.51,21
1441.21,-23
1439.91,-29
1438.62,3
1437.32,-13
1436.02,-12
1434.73,7
1433.43,-14
1432.14,-13
1430.84,4
1429.54,2
1428.25,-10
1426.95,4
1425.65,4
1424.36,10
1423.06,15
1421.76,-4
1420.47,-18
1419.17,2
1417.87,28
1416.58,35
1415.28,24
1413.99,6
1412.69,27
1411.39,12
1410.10,7
1408.80,48
1407.50,42
1406.21,55
1404.91,17
1403.61,35
1402.32,34
1401.02,17
1399.72,6
1398.43,-6
1397.13,-27
1395.83,1
1394.54,6
1393.24,-8
1391.95,-6
1390.65,-15
1389.35,-24
1388.06,10
1386.76,-7
1385.46,12
1384.17,11
1382.87,9
1381.57,0
1380.28,-6
1378.98,-5
1377.68,19
1376.39,9
1375.09,44
1373.79,23
1372.50,20
1371.20,21
1369.91,-2
1368.61,-11
1367.31,-9
1366.02,-36
1364.72,-9
1363.42,9
1362.13,9
1360.83,-5
1359.53,-17
1358.24,7
1356.94,6
1355.64,16
1354.35,18
1353.05,1
1351.75,-13
1350.46,-8
1349.16,-12
1347.87,16
1346.57,-14
1345.27,-17
1343.98,-3
1342.68,9
1341.38,9
1340.09,-7
1338.79,12
1337.49,-18
1336.20,-28
1334.90,-35
1333.60,-23
1332.31,2
1331.01,-19
1329.71,23
1328.42,20
1327.12,1
1325.83,-2
1324.53,-16
1323.23,-35
1321.94,-2
1320.64,-43
1319.34,-35
1318.05,-7
1316.75,0
1315.45,-6
1314.16,-17
1312.86,-22
1311.56,-18
1310.27,1
1308.97,-26
1307.67,-49
1306.38,-31
1305.08,3
1303.79,-11
1302.49,0
1301.19,-25
1299.90,-36
1298.60,-23
1297.30,-7
1296.01,-6
1294.71,-13
1293.41,-26
1292.12,-7
1290.82,-15
1289.52,-27
1288.23,-13
1286.93,10
1285.63,-3
1284.34,-1
1283.04,-0
1281.75,18
1280.45,32
1279.15,23
1277.86,17
1276.56,0
1275.26,-6
1273.97,-11
1272.67,-12
