Created As Omnic File,PLAS 198
Raman Shift / cm-1,INT
3699.66,1
3698.36,0
3697.06,0
3695.77,1
3694.47,1
3693.18,-0
3691.88,0
3690.58,0
3689.29,0
3687.99,1
3686.69,-0
3685.40,-0
3684.10,-1
3682.80,-0
3681.51,-0
3680.21,-0
3678.91,1
3677.62,-0
3676.32,0
3675.02,0
3673.73,-0
3672.43,1
3671.14,1
3669.84,0
3668.54,0
3667.25,0
3665.95,-0
3664.65,0
3663.36,-0
3662.06,1
3660.76,0
3659.47,1
3658.17,0
3656.87,2
3655.58,1
3654.28,-0
3652.98,0
3651.69,1
3650.39,1
3649.10,1
3647.80,0
3646.50,0
3645.21,0
3643.91,0
3642.61,0
3641.32,0
3640.02,-1
3638.72,-0
3637.43,-0
3636.13,-0
3634.83,-0
3633.54,0
3632.24,-1
3630.94,0
3629.65,-1
3628.35,0
3627.06,0
3625.76,1
3624.46,0
3623.17,1
3621.87,-1
3620.57,1
3619.28,1
3617.98,2
3616.68,1
3615.39,1
3614.09,-0
3612.79,0
3611.50,1
3610.20,0
3608.90,0
3607.61,-0
3606.31,1
3605.02,0
3603.72,0
3602.42,-1
3601.13,-0
3599.83,-0
3598.53,0
3597.24,1
3595.94,-1
3594.64,0
3593.35,-0
3592.05,-0
3590.75,-0
3589.46,-1
3588.16,1
3586.87,-0
3585.57,1
3584.27,1
3582.98,2
3581.68,3
3580.38,5
3579.09,7
3577.79,6
3576.49,6
3575.20,5
3573.90,4
3572.60,2
3571.31,2
3570.01,1
3568.71,1
3567.42,1
3566.12,1
3564.83,1
3563.53,0
3562.23,0
3560.94,0
3559.64,-0
3558.34,1
3557.05,0
3555.75,1
3554.45,1
3553.16,0
3551.86,0
3550.56,0
3549.27,1
3547.97,1
3546.67,1
3545.38,1
3544.08,0
3542.79,1
3541.49,1
3540.19,1
3538.90,1
3537.60,1
3536.30,2
3535.01,1
3533.71,2
3532.41,1
3531.12,1
3529.82,1
3528.52,1
3527.23,2
3525.93,1
3524.63,2
3523.34,2
3522.04,1
3520.75,1
3519.45,1
3518.15,2
3516.86,2
3515.56,2
3514.26,2
3512.97,2
3511.67,2
3510.37,2
3509.08,2
3507.78,2
3506.48,1
3505.19,2
3503.89,2
3502.59,2
3501.30,2
3500.00,3
3498.71,2
3497.41,2
3496.11,2
3494.82,2
3493.52,2
3492.22,3
3490.93,2
3489.63,2
3488.33,2
3487.04,2
3485.74,2
3484.44,1
3483.15,1
3481.85,1
3480.55,3
3479.26,2
3477.96,2
3476.67,1
3475.37,3
3474.07,1
3472.78,1
3471.48,2
3470.18,1
3468.89,2
3467.59,2
3466.29,1
3465.00,2
3463.70,1
3462.40,2
3461.11,2
3459.81,1
3458.51,2
3457.22,2
3455.92,2
3454.63,2
3453.33,2
3452.03,2
3450.74,2
3449.44,2
3448.14,2
3446.85,2
3445.55,2
3444.25,3
3442.96,2
3441.66,3
3440.36,3
3439.07,3
3437.77,2
3436.47,3
3435.18,3
3433.88,2
3432.59,3
3431.29,2
3429.99,2
3428.70,2
3427.40,2
3426.10,2
3424.81,2
3423.51,2
3422.21,2
3420.92,5
3419.62,10
3418.32,6
3417.03,3
3415.73,2
3414.43,2
3413.14,3
3411.84,2
3410.55,3
3409.25,2
3407.95,3
3406.66,2
3405.36,2
3404.06,2
3402.77,3
3401.47,3
3400.17,3
3398.88,2
3397.58,4
3396.28,2
3394.99,3
3393.69,2
3392.39,3
3391.10,3
3389.80,2
3388.51,3
3387.21,2
3385.91,3
3384.62,3
3383.32,2
3382.02,3
3380.73,2
3379.43,3
3378.13,2
3376.84,3
3375.54,2
3374.24,2
3372.95,3
3371.65,3
3370.35,2
3369.06,3
3367.76,2
3366.47,3
3365.17,2
3363.87,3
3362.58,2
3361.28,2
3359.98,2
3358.69,3
3357.39,2
3356.09,2
3354.80,2
3353.50,3
3352.20,2
3350.91,2
3349.61,3
3348.31,2
3347.02,2
3345.72,2
3344.43,1
3343.13,2
3341.83,2
3340.54,2
3339.24,2
3337.94,2
3336.65,2
3335.35,2
3334.05,2
3332.76,2
3331.46,2
3330.16,3
3328.87,3
3327.57,2
3326.27,2
3324.98,2
3323.68,2
3322.39,2
3321.09,2
3319.79,2
3318.50,1
3317.20,2
3315.90,2
3314.61,2
3313.31,1
3312.01,1
3310.72,1
3309.42,1
3308.12,1
3306.83,2
3305.53,2
3304.24,0
3302.94,1
3301.64,1
3300.35,1
3299.05,1
3297.75,1
3296.46,0
3295.16,1
3293.86,0
3292.57,-0
3291.27,0
3289.97,-0
3288.68,0
3287.38,-0
3286.08,1
3284.79,-1
3283.49,1
3282.20,0
3280.90,-1
3279.60,-1
3278.31,0
3277.01,-0
3275.71,-2
3274.42,-1
3273.12,-1
3271.82,-1
3270.53,-0
3269.23,-1
3267.93,-1
3266.64,-1
3265.34,-0
3264.04,-1
3262.75,-1
3261.45,-1
3260.16,-1
3258.86,-2
3257.56,-0
3256.27,-2
3254.97,-1
3253.67,-2
3252.38,-2
3251.08,-1
3249.78,-2
3248.49,-1
3247.19,-2
3245.89,-1
3244.60,-1
3243.30,-2
3242.00,-2
3240.71,-1
3239.41,-3
3238.12,-3
3236.82,-3
3235.52,-1
3234.23,-3
3232.93,-2
3231.63,-2
3230.34,-2
3229.04,-1
3227.74,-2
3226.45,-3
3225.15,-3
3223.85,-2
3222.56,-2
3221.26,-2
3219.96,-3
3218.67,-2
3217.37,-3
3216.08,-3
3214.78,-3
3213.48,-3
3212.19,-3
3210.89,-2
3209.59,-2
3208.30,-2
3207.00,-3
3205.70,-3
3204.41,-2
3203.11,-3
3201.81,-2
3200.52,-3
3199.22,-3
3197.92,-3
3196.63,-3
3195.33,-2
3194.04,-2
3192.74,-3
3191.44,-3
3190.15,-3
3188.85,-3
3187.55,-4
3186.26,-3
3184.96,-3
3183.66,-3
3182.37,-4
3181.07,-4
3179.77,-4
3178.48,-3
3177.18,-3
3175.88,-3
3174.59,-4
3173.29,-3
3172.00,-4
3170.70,-3
3169.40,-3
3168.11,-3
3166.81,-3
3165.51,-4
3164.22,-3
3162.92,-3
3161.62,-3
3160.33,-3
3159.03,-3
3157.73,-4
3156.44,-4
3155.14,-3
3153.84,-3
3152.55,-3
3151.25,-3
3149.96,-4
3148.66,-5
3147.36,-4
3146.07,-3
3144.77,-4
3143.47,-3
3142.18,-4
3140.88,-4
3139.58,-3
3138.29,-3
3136.99,-3
3135.69,-3
3134.40,-3
3133.10,-2
3131.80,-2
3130.51,-3
3129.21,-4
3127.92,-2
3126.62,-3
3125.32,-3
3124.03,-2
3122.73,-2
3121.43,-3
3120.14,-1
3118.84,-2
3117.54,-3
3116.25,-2
3114.95,-2
3113.65,-3
3112.36,-4
3111.06,-1
3109.76,-3
3108.47,-2
3107.17,-2
3105.88,-1
3104.58,-2
3103.28,-1
3101.99,-1
3100.69,0
3099.39,-0
3098.10,-0
3096.80,-0
3095.50,-1
3094.21,0
3092.91,-0
3091.61,-0
3090.32,-0
3089.02,1
3087.72,0
3086.43,1
3085.13,0
3083.84,1
3082.54,1
3081.24,1
3079.95,1
3078.65,1
3077.35,1
3076.06,2
3074.76,1
3073.46,3
3072.17,4
3070.87,3
3069.57,4
3068.28,4
3066.98,3
3065.68,4
3064.39,5
3063.09,6
3061.80,5
3060.50,5
3059.20,5
3057.91,7
3056.61,3
3055.31,5
3054.02,4
3052.72,2
3051.42,3
3050.13,3
3048.83,3
3047.53,2
3046.24,2
3044.94,1
3043.65,2
3042.35,2
3041.05,1
3039.76,1
3038.46,1
3037.16,-0
3035.87,1
3034.57,-1
3033.27,0
3031.98,1
3030.68,-0
3029.38,0
3028.09,-2
3026.79,-1
3025.49,-0
3024.20,-1
3022.90,-2
3021.61,-0
3020.31,-0
3019.01,-0
3017.72,-1
3016.42,-2
3015.12,1
3013.83,-1
3012.53,-2
3011.23,-3
3009.94,0
3008.64,-0
3007.34,-1
3006.05,1
3004.75,1
3003.45,-1
3002.16,-0
3000.86,-1
2999.57,-1
2998.27,-1
2996.97,-1
2995.68,-0
2994.38,-1
2993.08,-1
2991.79,-2
2990.49,-1
2989.19,-0
2987.90,-0
2986.60,0
2985.30,0
2984.01,-0
2982.71,-2
2981.41,-1
2980.12,1
2978.82,0
2977.53,0
2976.23,0
2974.93,-0
2973.64,0
2972.34,-1
2971.04,-1
2969.75,1
2968.45,-0
2967.15,1
2965.86,0
2964.56,0
2963.26,-1
2961.97,-1
2960.67,-1
2959.37,2
2958.08,-1
2956.78,-1
2955.49,-0
2954.19,0
2952.89,-2
2951.60,-1
2950.30,0
2949.00,-1
2947.71,-0
2946.41,-1
2945.11,-1
2943.82,-1
2942.52,-2
2941.22,-1
2939.93,-0
2938.63,-1
2937.33,-1
2936.04,-1
2934.74,0
2933.45,-1
2932.15,0
2930.85,-0
2929.56,-2
2928.26,-1
2926.96,-2
2925.67,1
2924.37,-0
2923.07,-1
2921.78,-2
2920.48,-1
2919.18,-2
2917.89,-2
2916.59,-2
2915.29,-1
2914.00,-2
2912.70,-0
2911.41,0
2910.11,-2
2908.81,0
2907.52,-0
2906.22,-0
2904.92,-2
2903.63,0
2902.33,-1
2901.03,-1
2899.74,-2
2898.44,0
2897.14,-2
2895.85,-0
2894.55,-2
2893.25,0
2891.96,-2
2890.66,-1
2889.37,0
2888.07,-0
2886.77,-2
2885.48,-1
2884.18,-3
2882.88,-3
2881.59,-2
2880.29,-2
2878.99,-1
2877.70,-1
2876.40,-1
2875.10,-2
2873.81,3
2872.51,0
2871.21,1
2869.92,1
2868.62,0
2867.33,2
2866.03,0
2864.73,1
2863.44,0
2862.14,-0
2860.84,-2
2859.55,-2
2858.25,-1
2856.95,-3
2855.66,-3
2854.36,-1
2853.06,-3
2851.77,-1
2850.47,-5
2849.17,-2
2847.88,-2
2846.58,-3
2845.29,-2
2843.99,-3
2842.69,-3
2841.40,-2
2840.10,-3
2838.80,-4
2837.51,-2
2836.21,-3
2834.91,-2
2833.62,-4
2832.32,-4
2831.02,-4
2829.73,-3
2828.43,-3
2827.13,-4
2825.84,1
2824.54,-2
2823.25,-3
2821.95,0
2820.65,-2
2819.36,-5
2818.06,-5
2816.76,-4
2815.47,-4
2814.17,-2
2812.87,-4
2811.58,-3
2810.28,-5
2808.98,-2
2807.69,-2
2806.39,-3
2805.09,-2
2803.80,-4
2802.50,-2
2801.21,-3
2799.91,-2
2798.61,-2
2797.32,-4
2796.02,-5
2794.72,-3
2793.43,-2
2792.13,-1
2790.83,-2
2789.54,-2
2788.24,-2
2786.94,-4
2785.65,-1
2784.35,-2
2783.06,-3
2781.76,-3
2780.46,-3
2779.17,-3
2777.87,-4
2776.57,-6
2775.28,0
2773.98,-4
2772.68,-3
2771.39,-4
2770.09,0
2768.79,-1
2767.50,-3
2766.20,-2
2764.90,-4
2763.61,-3
2762.31,-1
2761.02,-4
2759.72,-2
2758.42,-3
2757.13,-3
2755.83,-2
2754.53,-2
2753.24,-2
2751.94,-2
2750.64,-5
2749.35,-3
2748.05,-2
2746.75,-3
2745.46,-2
2744.16,-4
2742.86,-4
2741.57,-2
2740.27,-4
2738.98,-4
2737.68,-1
2736.38,-2
2735.09,-7
2733.79,-6
2732.49,-2
2731.20,-4
2729.90,-4
2728.60,-4
2727.31,-4
2726.01,-4
2724.71,-3
2723.42,-2
2722.12,-9
2720.82,-7
2719.53,-2
2718.23,-2
2716.94,-3
2715.64,-6
2714.34,-5
2713.05,-6
2711.75,-5
2710.45,-4
2709.16,-4
2707.86,-3
2706.56,-7
2705.27,-4
2703.97,-4
2702.67,-6
2701.38,-6
2700.08,-0
2698.78,-4
2697.49,-7
2696.19,-7
2694.90,-9
2693.60,-4
2692.30,-7
2691.01,-4
2689.71,-7
2688.41,-5
2687.12,-6
2685.82,-8
2684.52,-7
2683.23,-8
2681.93,-7
2680.63,-8
2679.34,-7
2678.04,-7
2676.74,-6
2675.45,-5
2674.15,-9
2672.86,-8
2671.56,-8
2670.26,-6
2668.97,-9
2667.67,-9
2666.37,-7
2665.08,-8
2663.78,-8
2662.48,-11
2661.19,-10
2659.89,-12
2658.59,-11
2657.30,-9
2656.00,-10
2654.70,-11
2653.41,-12
2652.11,-10
2650.82,-10
2649.52,-7
2648.22,-9
2646.93,-11
2645.63,-14
2644.33,-9
2643.04,-11
2641.74,-8
2640.44,1
2639.15,-2
2637.85,-10
2636.55,-10
2635.26,-9
2633.96,-10
2632.66,-15
2631.37,-12
2630.07,-10
2628.78,-11
2627.48,-11
2626.18,-11
2624.89,-13
2623.59,-13
2622.29,-11
2621.00,-13
2619.70,-10
2618.40,-16
2617.11,-11
2615.81,-13
2614.51,-14
2613.22,-15
2611.92,-12
2610.62,-10
2609.33,-13
2608.03,-10
2606.74,-11
2605.44,-14
2604.14,-6
2602.85,-9
2601.55,-9
2600.25,-13
2598.96,-13
2597.66,-13
2596.36,-10
2595.07,-10
2593.77,-14
2592.47,-9
2591.18,-12
2589.88,-11
2588.58,-8
2587.29,-10
2585.99,-9
2584.70,-8
2583.40,-5
2582.10,-5
2580.81,-13
2579.51,-10
2578.21,-7
2576.92,-8
2575.62,-7
2574.32,-5
2573.03,-10
2571.73,-8
2570.43,-10
2569.14,-9
2567.84,-11
2566.54,-8
2565.25,-5
2563.95,-8
2562.66,-7
2561.36,-6
2560.06,-8
2558.77,-7
2557.47,-5
2556.17,-9
2554.88,-9
2553.58,-7
2552.28,-6
2550.99,-6
2549.69,-5
2548.39,-7
2547.10,-6
2545.80,-6
2544.50,-4
2543.21,-8
2541.91,-7
2540.62,-7
2539.32,-7
2538.02,-4
2536.73,-5
2535.43,-6
2534.13,-6
2532.84,-6
2531.54,-8
2530.24,-7
2528.95,-3
2527.65,-5
2526.35,-6
2525.06,-6
2523.76,-5
2522.46,-7
2521.17,-7
2519.87,-6
2518.58,-3
2517.28,-8
2515.98,-7
2514.69,-6
2513.39,-7
2512.09,-7
2510.80,-3
2509.50,-6
2508.20,-7
2506.91,-7
2505.61,-9
2504.31,-9
2503.02,-6
2501.72,-8
2500.43,-8
2499.13,-7
2497.83,-4
2496.54,-6
2495.24,-4
2493.94,-4
2492.65,-5
2491.35,-5
2490.05,-5
2488.76,-7
2487.46,-9
2486.16,-7
2484.87,-5
2483.57,-5
2482.27,-4
2480.98,-7
2479.68,-6
2478.39,-8
2477.09,-6
2475.79,-6
2474.50,-3
2473.20,-6
2471.90,-8
2470.61,-8
2469.31,-3
2468.01,-4
2466.72,-4
2465.42,-5
2464.12,-8
2462.83,-7
2461.53,-6
2460.23,-7
2458.94,-6
2457.64,-3
2456.35,-4
2455.05,-5
2453.75,-5
2452.46,-6
2451.16,-0
2449.86,-5
2448.57,-6
2447.27,-3
2445.97,-2
2444.68,-5
2443.38,-1
2442.08,-1
2440.79,-2
2439.49,-4
2438.19,-2
2436.90,-2
2435.60,-2
2434.31,-4
2433.01,-4
2431.71,-4
2430.42,-2
2429.12,-1
2427.82,-3
2426.53,-4
2425.23,-2
2423.93,-3
2422.64,-5
2421.34,-5
2420.04,-4
2418.75,-3
2417.45,-3
2416.15,-3
2414.86,-4
2413.56,-5
2412.27,-4
2410.97,-4
2409.67,-6
2408.38,-3
2407.08,-5
2405.78,-4
2404.49,-6
2403.19,-3
2401.89,-3
2400.60,-5
2399.30,-4
2398.00,-5
2396.71,-2
2395.41,-4
2394.11,-3
2392.82,-3
2391.52,-3
2390.23,-2
2388.93,-1
2387.63,-5
2386.34,-5
2385.04,-5
2383.74,-5
2382.45,-4
2381.15,-6
2379.85,-2
2378.56,1
2377.26,-1
2375.96,-3
2374.67,-1
2373.37,-2
2372.07,-0
2370.78,2
2369.48,-1
2368.19,2
2366.89,3
2365.59,0
2364.30,-1
2363.00,1
2361.70,-2
2360.41,-4
2359.11,-4
2357.81,3
2356.52,4
2355.22,3
2353.92,4
2352.63,3
2351.33,3
2350.03,0
2348.74,6
2347.44,2
2346.15,3
2344.85,1
2343.55,0
2342.26,-2
2340.96,-2
2339.66,2
2338.37,-2
2337.07,-2
2335.77,-2
2334.48,4
2333.18,-0
2331.88,2
2330.59,-1
2329.29,3
2327.99,-1
2326.70,-2
2325.40,-2
2324.11,-3
2322.81,4
2321.51,2
2320.22,3
2318.92,5
2317.62,3
2316.33,3
2315.03,1
2313.73,-0
2312.44,5
2311.14,3
2309.84,0
2308.55,1
2307.25,2
2305.95,-0
2304.66,1
2303.36,1
2302.07,5
2300.77,-1
2299.47,7
2298.18,1
2296.88,1
2295.58,4
2294.29,4
2292.99,7
2291.69,8
2290.40,4
2289.10,3
2287.80,2
2286.51,3
2285.21,2
2283.91,7
2282.62,0
2281.32,-2
2280.03,-2
2278.73,-5
2277.43,-3
2276.14,1
2274.84,5
2273.54,-1
2272.25,1
2270.95,-1
2269.65,4
2268.36,0
2267.06,-4
2265.76,-1
2264.47,1
2263.17,-2
2261.87,-2
2260.58,-3
2259.28,-1
2257.99,-4
2256.69,-3
2255.39,-3
2254.10,-1
2252.80,-0
2251.50,-0
2250.21,3
2248.91,2
2247.61,-1
2246.32,-0
2245.02,3
2243.72,-2
2242.43,3
2241.13,10
2239.84,6
2238.54,0
2237.24,3
2235.95,-3
2234.65,-4
2233.35,-2
2232.06,-3
2230.76,-1
2229.46,2
2228.17,1
2226.87,3
2225.57,2
2224.28,7
2222.98,-2
2221.68,6
2220.39,9
2219.09,13
2217.80,5
2216.50,10
2215.20,10
2213.91,7
2212.61,9
2211.31,8
2210.02,3
2208.72,7
2207.42,3
2206.13,3
2204.83,5
2203.53,7
2202.24,11
2200.94,9
2199.64,11
2198.35,8
2197.05,4
2195.76,0
2194.46,2
2193.16,5
2191.87,4
2190.57,-2
2189.27,1
2187.98,1
2186.68,-4
2185.38,0
2184.09,2
2182.79,1
2181.49,2
2180.20,2
2178.90,-4
2177.60,-0
2176.31,-1
2175.01,7
2173.72,-0
2172.42,2
2171.12,-0
2169.83,3
2168.53,10
2167.23,8
2165.94,1
2164.64,5
2163.34,7
2162.05,12
2160.75,1
2159.45,7
2158.16,6
2156.86,4
2155.56,1
2154.27,0
2152.97,2
2151.68,3
2150.38,3
2149.08,7
2147.79,3
2146.49,2
2145.19,6
2143.90,2
2142.60,-5
2141.30,3
2140.01,-1
2138.71,5
2137.41,4
2136.12,9
2134.82,10
2133.52,11
2132.23,5
2130.93,1
2129.64,8
2128.34,9
2127.04,5
2125.75,6
2124.45,5
2123.15,6
2121.86,10
2120.56,11
2119.26,9
2117.97,14
2116.67,15
2115.37,4
2114.08,1
2112.78,11
2111.48,9
2110.19,4
2108.89,8
2107.60,9
2106.30,5
2105.00,5
2103.71,4
2102.41,2
2101.11,9
2099.82,13
2098.52,15
2097.22,14
2095.93,14
2094.63,9
2093.33,13
2092.04,17
2090.74,18
2089.44,10
2088.15,13
2086.85,16
2085.56,17
2084.26,15
2082.96,18
2081.67,17
2080.37,11
2079.07,13
2077.78,15
2076.48,13
2075.18,7
2073.89,-1
2072.59,1
2071.29,3
2070.00,-1
2068.70,5
2067.40,5
2066.11,3
2064.81,5
2063.52,12
2062.22,0
2060.92,-4
2059.63,-2
2058.33,-1
2057.03,1
2055.74,-2
2054.44,5
2053.14,5
2051.85,5
2050.55,1
2049.25,-1
2047.96,-2
2046.66,-2
2045.36,-1
2044.07,0
2042.77,7
2041.48,-3
2040.18,-2
2038.88,6
2037.59,5
2036.29,-0
2034.99,6
2033.70,0
2032.40,-11
2031.10,-12
2029.81,-1
2028.51,-9
2027.21,0
2025.92,-0
2024.62,-3
2023.32,0
2022.03,7
2020.73,7
2019.44,6
2018.14,6
2016.84,6
2015.55,7
2014.25,5
2012.95,7
2011.66,10
2010.36,0
2009.06,3
2007.77,2
2006.47,2
2005.17,-1
2003.88,-5
2002.58,2
2001.28,9
1999.99,2
1998.69,-1
1997.40,4
1996.10,0
1994.80,-7
1993.51,-3
1992.21,0
1990.91,-6
1989.62,-9
1988.32,-10
1987.02,-7
1985.73,3
1984.43,-3
1983.13,-3
1981.84,-7
1980.54,-8
1979.24,-10
1977.95,-15
1976.65,3
1975.36,13
1974.06,3
1972.76,-9
1971.47,12
1970.17,-3
1968.87,5
1967.58,6
1966.28,5
1964.98,2
1963.69,8
1962.39,9
1961.09,-3
1959.80,3
1958.50,11
1957.21,19
1955.91,12
1954.61,6
1953.32,14
1952.02,13
1950.72,11
1949.43,16
1948.13,15
1946.83,11
1945.54,8
1944.24,7
1942.94,10
1941.65,13
1940.35,11
1939.05,16
1937.76,18
1936.46,13
1935.17,8
1933.87,2
1932.57,3
1931.28,10
1929.98,5
1928.68,7
1927.39,-5
1926.09,-0
1924.79,5
1923.50,5
1922.20,11
1920.90,3
1919.61,-8
1918.31,-1
1917.01,0
1915.72,2
1914.42,8
1913.13,1
1911.83,-5
1910.53,-7
1909.24,-12
1907.94,-7
1906.64,-5
1905.35,2
1904.05,5
1902.75,20
1901.46,13
1900.16,15
1898.86,7
1897.57,-2
1896.27,2
1894.97,-3
1893.68,-1
1892.38,-4
1891.09,5
1889.79,0
1888.49,-8
1887.20,-6
1885.90,-3
1884.60,4
1883.31,2
1882.01,3
1880.71,7
1879.42,-1
1878.12,1
1876.82,-3
1875.53,-6
1874.23,5
1872.93,0
1871.64,0
1870.34,5
1869.05,-16
1867.75,1
1866.45,5
1865.16,3
1863.86,-6
1862.56,5
1861.27,7
1859.97,13
1858.67,15
1857.38,8
1856.08,8
1854.78,11
1853.49,13
1852.19,16
1850.89,19
1849.60,21
1848.30,19
1847.01,22
1845.71,19
1844.41,22
1843.12,23
1841.82,12
1840.52,10
1839.23,6
1837.93,11
1836.63,8
1835.34,7
1834.04,14
1832.74,6
1831.45,5
1830.15,18
1828.85,9
1827.56,-3
1826.26,15
1824.97,18
1823.67,-1
1822.37,-5
1821.08,6
1819.78,0
1818.48,-2
1817.19,9
1815.89,11
1814.59,9
1813.30,14
1812.00,-4
1810.70,14
1809.41,8
1808.11,-2
1806.81,7
1805.52,4
1804.22,-9
1802.93,-0
1801.63,15
1800.33,9
1799.04,16
1797.74,22
1796.44,16
1795.15,24
1793.85,27
1792.55,21
1791.26,28
1789.96,32
1788.66,39
1787.37,62
1786.07,81
1784.77,99
1783.48,130
1782.18,160
1780.89,191
1779.59,222
1778.29,264
1777.00,294
1775.70,309
1774.40,315
1773.11,334
1771.81,319
1770.51,298
1769.22,284
1767.92,266
1766.62,238
1765.33,203
1764.03,170
1762.73,137
1761.44,104
1760.14,104
1758.85,79
1757.55,60
1756.25,47
1754.96,39
1753.66,23
1752.36,24
1751.07,24
1749.77,16
1748.47,-3
1747.18,-5
1745.88,0
1744.58,-10
1743.29,-16
1741.99,-19
1740.69,-17
1739.40,-14
1738.10,-25
1736.81,-26
1735.51,-26
1734.21,-9
1732.92,-25
1731.62,-28
1730.32,-11
1729.03,-7
1727.73,-11
1726.43,-13
1725.14,-21
1723.84,-12
1722.54,7
1721.25,8
1719.95,12
1718.65,9
1717.36,4
1716.06,10
1714.77,12
1713.47,0
1712.17,-15
1710.88,-16
1709.58,-4
1708.28,-1
1706.99,-7
1705.69,-1
1704.39,5
1703.10,24
1701.80,30
1700.50,16
1699.21,27
1697.91,17
1696.62,11
1695.32,8
1694.02,13
1692.73,22
1691.43,13
1690.13,5
1688.84,10
1687.54,19
1686.24,3
1684.95,19
1683.65,22
1682.35,15
1681.06,4
1679.76,2
1678.46,-1
1677.17,-4
1675.87,7
1674.58,9
1673.28,-4
1671.98,-3
1670.69,-1
1669.39,-7
1668.09,19
1666.80,-4
1665.50,-1
1664.20,4
1662.91,-11
1661.61,-16
1660.31,-8
1659.02,1
1657.72,4
1656.42,3
1655.13,-3
1653.83,-2
1652.54,-3
1651.24,-6
1649.94,-3
1648.65,2
1647.35,0
1646.05,-5
1644.76,4
1643.46,19
1642.16,23
1640.87,0
1639.57,-6
1638.27,9
1636.98,1
1635.68,2
1634.38,7
1633.09,-0
1631.79,-0
1630.50,24
1629.20,25
1627.90,30
1626.61,59
1625.31,63
1624.01,74
1622.72,85
1621.42,97
1620.12,105
1618.83,122
1617.53,150
1616.23,154
1614.94,151
1613.64,145
1612.34,162
1611.05,170
1609.75,163
1608.46,171
1607.16,179
1605.86,186
1604.57,199
1603.27,209
1601.97,210
1600.68,216
1599.38,229
1598.08,216
1596.79,226
1595.49,227
1594.19,220
1592.90,214
1591.60,211
1590.30,209
1589.01,198
1587.71,169
1586.42,150
1585.12,144
1583.82,145
1582.53,143
1581.23,113
1579.93,99
1578.64,96
1577.34,78
1576.04,88
1574.75,81
1573.45,82
1572.15,79
1570.86,78
1569.56,76
1568.26,63
1566.97,53
1565.67,50
1564.38,51
1563.08,59
1561.78,43
1560.49,25
1559.19,26
1557.89,63
1556.60,51
1555.30,22
1554.00,12
1552.71,11
1551.41,14
1550.11,3
1548.82,12
1547.52,33
1546.22,13
1544.93,33
1543.63,25
1542.34,-2
1541.04,-3
1539.74,8
1538.45,-3
1537.15,12
1535.85,13
1534.56,8
1533.26,2
1531.96,6
1530.67,22
1529.37,30
1528.07,21
1526.78,19
1525.48,-2
1524.18,8
1522.89,12
1521.59,17
1520.30,21
1519.00,19
1517.70,7
1516.41,-9
1515.11,-9
1513.81,19
1512.52,14
1511.22,10
1509.92,5
1508.63,19
1507.33,22
1506.03,11
1504.74,13
1503.44,21
1502.14,6
1500.85,9
1499.55,-6
1498.26,8
1496.96,17
1495.66,10
1494.37,4
1493.07,13
1491.77,23
1490.48,27
1489.18,11
1487.88,7
1486.59,10
1485.29,11
1483.99,9
1482.70,4
1481.40,-6
1480.10,-13
1478.81,-5
1477.51,0
1476.22,-4
1474.92,-22
1473.62,-20
1472.33,-8
1471.03,-17
1469.73,-21
1468.44,-16
1467.14,-5
1465.84,-8
1464.55,1
1463.25,7
1461.95,1
1460.66,0
1459.36,19
1458.06,29
1456.77,-1
1455.47,-5
1454.18,20
1452.88,34
1451.58,39
1450.29,38
1448.99,24
1447.69,25
1446.40,8
1445.10,5
1443.80,31
1442.51,29
1441.21,9
1439.91,6
1438.62,19
1437.32,10
1436.02,7
1434.73,6
1433.43,-8
1432.14,-7
1430.84,5
1429.54,1
1428.25,-18
1426.95,-8
1425.65,12
1424.36,-9
1423.06,-6
1421.76,-5
1420.47,-5
1419.17,-1
1417.87,-3
1416.58,32
1415.28,11
1413.99,10
1412.69,26
1411.39,25
1410.10,23
1408.80,35
1407.50,30
1406.21,59
1404.91,50
1403.61,21
1402.32,33
1401.02,46
1399.72,43
1398.43,52
1397.13,65
1395.83,92
1394.54,97
1393.24,103
1391.95,112
1390.65,134
1389.35,166
1388.06,198
1386.76,225
1385.46,262
1384.17,287
1382.87,331
1381.57,360
1380.28,375
1378.98,394
1377.68,392
1376.39,408
1375.09,443
1373.79,423
1372.50,402
1371.20,382
1369.91,350
1368.61,320
1367.31,291
1366.02,279
1364.72,268
1363.42,248
1362.13,245
1360.83,251
1359.53,237
1358.24,224
1356.94,227
1355.64,224
1354.35,215
1353.05,218
1351.75,213
1350.46,184
1349.16,191
1347.87,191
1346.57,166
1345.27,183
1343.98,184
1342.68,173
1341.38,173
1340.09,145
1338.79,126
1337.49,129
1336.20,113
1334.90,101
1333.60,103
1332.31,103
1331.01,86
1329.71,102
1328.42,80
1327.12,91
1325.83,89
1324.53,68
1323.23,49
1321.94,40
1320.64,34
1319.34,43
1318.05,50
1316.75,47
1315.45,46
1314.16,53
1312.86,48
1311.56,15
1310.27,27
1308.97,22
1307.67,3
1306.38,3
1305.08,26
1303.79,12
1302.49,-7
1301.19,1
1299.90,-12
1298.60,-16
1297.30,-1
1296.01,5
1294.71,-12
1293.41,-11
